ATF	1.0
7	3     
"AcquisitionMode=Gap Free"
"Comment="
"YTop=10000,1000"
"YBottom=-10000,-1000"
"SweepStartTimesMS=0.000"
"SignalsExported=Im_Scaled,10_mv"
"Signals="	"Im_Scaled"	"10_mv"
"Time (s)"	"Trace #1 (pA)"	"Trace #1 (mV)"
0	1855.77	19.7754
0.1	1852.72	19.6533
0.2	1854.86	19.5923
0.3	1849.06	19.6838
0.4	1846.01	19.7754
0.5	1852.11	19.8059
0.6	1853.03	19.7144
0.7	1853.64	19.6838
0.8	1852.72	19.7449
0.9	1850.59	19.7449
1	1848.14	19.7754
1.1	1849.67	19.6533
1.2	1847.84	19.6838
1.3	1842.96	19.7754
1.4	1836.55	19.7449
1.5	1833.5	19.7449
1.6	1839.6	19.7144
1.7	1842.65	19.6228
1.8	1839.6	19.6838
1.9	1833.8	19.7449
2	1834.41	19.7449
2.1	1834.11	19.7144
2.2	1836.24	19.6533
2.3	1837.77	19.6533
2.4	1835.94	19.7144
2.5	1836.24	19.7449
2.6	1836.55	19.6533
2.7	1834.11	19.7754
2.8	1839.6	19.7754
2.9	1845.4	19.6838
3	1847.53	19.5618
3.1	1851.5	19.7144
3.2	1847.84	19.7754
3.3	1841.74	19.8059
3.4	1840.82	19.8059
3.5	1834.72	19.6838
3.6	1830.14	19.5923
3.7	1827.39	19.7144
3.8	1825.56	19.7754
3.9	1824.34	19.7754
4	1827.39	19.8059
4.1	1832.89	19.7449
4.2	1831.05	19.7449
4.3	1825.26	19.7449
4.4	1825.87	19.7144
4.5	1831.97	19.6533
4.6	1831.97	19.6228
4.7	1831.05	19.6838
4.8	1832.28	19.7754
4.9	1828.92	19.7449
5	1830.75	19.7754
5.1	1832.58	19.7144
5.2	1830.14	19.6838
5.3	1828.92	19.6228
5.4	1828	19.8059
5.5	1829.22	19.7754
5.6	1827.09	19.7449
5.7	1819.76	19.6533
5.8	1811.22	19.6228
5.9	1813.66	19.7754
6	1824.34	19.8364
6.1	1826.48	19.6838
6.2	1821.29	19.6838
6.3	1825.56	19.7449
6.4	1834.72	19.7754
6.5	1842.65	19.7449
6.6	1845.09	19.6838
6.7	1845.7	19.6533
6.8	1842.35	19.6228
6.9	1836.55	19.5923
7	1830.44	19.7144
7.1	1833.5	19.7144
7.2	1835.63	19.7754
7.3	1833.19	19.7449
7.4	1828.61	19.6838
7.5	1827.39	19.7144
7.6	1826.17	19.6533
7.7	1823.73	19.6228
7.8	1823.43	19.5923
7.9	1831.67	19.6228
8	1836.55	19.6838
8.1	1833.5	19.6838
8.2	1833.8	19.6533
8.3	1832.28	19.7449
8.4	1824.95	19.8059
8.5	1823.73	19.8364
8.6	1819.76	19.7449
8.7	1816.71	19.7449
8.8	1813.35	19.6228
8.9	1812.74	19.6228
9	1815.49	19.7754
9.1	1819.46	19.7754
9.2	1825.87	19.6838
9.3	1823.12	19.5618
9.4	1820.37	19.7449
9.5	1817.63	19.7754
9.6	1816.41	19.7754
9.7	1824.34	19.6228
9.8	1828.92	19.7449
9.9	1831.97	19.7754
10	1838.38	19.6838
10.1	1831.36	14.6179
10.2	1734.92	14.6484
10.3	1416.63	14.7705
10.4	1234.44	14.801
10.5	1227.72	14.7705
10.6	1227.42	14.6484
10.7	1222.53	14.6179
10.8	1221.92	14.74
10.9	1224.98	14.74
11	1227.72	14.6484
11.1	1228.03	14.6179
11.2	1227.42	14.6179
11.3	1227.11	14.7095
11.4	1228.64	14.801
11.5	1230.77	14.7705
11.6	1230.77	14.6179
11.7	1231.08	14.679
11.8	1231.99	14.74
11.9	1237.18	14.8315
12	1239.32	14.7095
12.1	1240.84	14.6484
12.2	1240.23	14.74
12.3	1238.4	14.7095
12.4	1239.93	14.801
12.5	1241.15	14.8315
12.6	1242.07	14.801
12.7	1243.59	14.7705
12.8	1242.98	14.74
12.9	1238.4	14.801
13	1235.66	14.801
13.1	1236.57	14.801
13.2	1234.44	14.801
13.3	1233.52	14.7705
13.4	1235.66	14.74
13.5	1237.79	14.679
13.6	1239.01	14.6179
13.7	1236.57	14.679
13.8	1235.35	14.801
13.9	1239.93	14.679
14	1240.23	14.6179
14.1	1235.66	14.801
14.2	1238.1	14.74
14.3	1241.15	14.6179
14.4	1240.23	14.6179
14.5	1239.32	14.801
14.6	1240.84	14.801
14.7	1240.54	14.679
14.8	1235.35	14.6179
14.9	1232.6	14.7705
15	1232.91	14.7705
15.1	1228.94	14.8315
15.2	1224.37	14.8315
15.3	1223.45	14.7705
15.4	1224.98	14.74
15.5	1228.94	14.6484
15.6	1232.3	14.6179
15.7	1231.38	14.6484
15.8	1228.94	14.7095
15.9	1227.42	14.7095
16	1229.55	14.7705
16.1	1232.91	14.801
16.2	1234.74	14.801
16.3	1233.83	14.7705
16.4	1233.83	14.74
16.5	1231.38	14.801
16.6	1231.69	14.801
16.7	1238.1	14.74
16.8	1242.37	14.7095
16.9	1240.54	14.6484
17	1239.32	14.6484
17.1	1239.93	14.6484
17.2	1237.49	14.6484
17.3	1236.27	14.7705
17.4	1237.49	14.7705
17.5	1239.32	14.679
17.6	1241.46	14.7705
17.7	1240.54	14.7095
17.8	1235.66	14.6179
17.9	1235.66	14.801
18	1237.18	14.8315
18.1	1236.88	14.6179
18.2	1235.66	14.7705
18.3	1236.57	14.74
18.4	1237.79	14.6484
18.5	1237.18	14.6179
18.6	1238.4	14.6484
18.7	1239.32	14.6484
18.8	1236.27	14.801
18.9	1232.91	14.7705
19	1233.22	14.74
19.1	1237.18	14.7095
19.2	1239.32	14.6484
19.3	1241.46	14.6179
19.4	1237.18	14.74
19.5	1233.83	14.801
19.6	1233.83	14.679
19.7	1234.44	14.6484
19.8	1233.52	14.6484
19.9	1231.99	14.6484
20	1233.22	14.5874
20.1	1234.13	14.5874
20.2	1235.05	9.73511
20.3	1202.09	9.73511
20.4	924.072	9.79614
20.5	643.616	9.76563
20.6	603.638	9.70459
20.7	607.91	9.73511
20.8	604.858	9.64355
20.9	608.215	9.64355
21	609.436	9.73511
21.1	608.826	9.79614
21.2	610.352	9.70459
21.3	610.657	9.64355
21.4	609.131	9.73511
21.5	607.605	9.76563
21.6	606.689	9.79614
21.7	607.3	9.70459
21.8	609.131	9.61304
21.9	610.657	9.67407
22	611.572	9.79614
22.1	609.741	9.79614
22.2	608.215	9.67407
22.3	607.605	9.73511
22.4	606.995	9.76563
22.5	606.995	9.70459
22.6	608.826	9.64355
22.7	608.521	9.79614
22.8	606.384	9.70459
22.9	606.384	9.58252
23	608.521	9.76563
23.1	609.741	9.79614
23.2	609.741	9.64355
23.3	608.215	9.76563
23.4	606.079	9.61304
23.5	605.469	9.64355
23.6	606.079	9.79614
23.7	606.079	9.79614
23.8	606.995	9.76563
23.9	607.605	9.70459
24	606.995	9.73511
24.1	606.995	9.76563
24.2	606.995	9.73511
24.3	605.469	9.76563
24.4	603.943	9.76563
24.5	604.553	9.82666
24.6	605.469	9.79614
24.7	604.553	9.79614
24.8	606.079	9.70459
24.9	606.689	9.70459
25	606.689	9.70459
25.1	606.995	9.61304
25.2	608.826	9.64355
25.3	608.826	9.61304
25.4	607.3	9.73511
25.5	606.079	9.79614
25.6	606.689	9.70459
25.7	607.3	9.64355
25.8	607.91	9.73511
25.9	607.3	9.76563
26	606.384	9.76563
26.1	605.774	9.67407
26.2	603.333	9.61304
26.3	602.722	9.73511
26.4	600.891	9.85718
26.5	599.67	9.70459
26.6	601.807	9.64355
26.7	604.248	9.73511
26.8	603.943	9.64355
26.9	603.027	9.76563
27	603.638	9.76563
27.1	602.722	9.70459
27.2	601.501	9.76563
27.3	600.891	9.64355
27.4	601.196	9.73511
27.5	601.807	9.73511
27.6	602.722	9.61304
27.7	603.943	9.70459
27.8	603.333	9.79614
27.9	602.112	9.70459
28	603.027	9.61304
28.1	602.112	9.76563
28.2	600.586	9.79614
28.3	600.891	9.73511
28.4	603.333	9.58252
28.5	601.501	9.73511
28.6	601.807	9.79614
28.7	602.417	9.79614
28.8	601.196	9.73511
28.9	600.586	9.64355
29	601.501	9.61304
29.1	602.722	9.61304
29.2	602.417	9.64355
29.3	600.891	9.67407
29.4	598.45	9.67407
29.5	598.145	9.76563
29.6	600.891	9.82666
29.7	602.112	9.76563
29.8	602.417	9.73511
29.9	602.722	9.58252
30	603.333	9.67407
30.1	603.638	4.85229
30.2	594.788	4.79126
30.3	407.715	4.63867
30.4	70.4956	4.66919
30.5	-34.4849	4.82178
30.6	-29.9072	4.85229
30.7	-32.3486	4.69971
30.8	-32.6538	4.76074
30.9	-32.6538	4.82178
31	-32.959	4.82178
31.1	-32.3486	4.66919
31.2	-32.6538	4.69971
31.3	-33.2642	4.76074
31.4	-32.6538	4.79126
31.5	-32.6538	4.63867
31.6	-32.6538	4.69971
31.7	-33.2642	4.69971
31.8	-33.2642	4.73022
31.9	-32.6538	4.79126
32	-32.959	4.73022
32.1	-32.959	4.66919
32.2	-33.5693	4.60815
32.3	-33.2642	4.66919
32.4	-33.5693	4.69971
32.5	-33.5693	4.79126
32.6	-33.5693	4.82178
32.7	-33.8745	4.66919
32.8	-34.1797	4.63867
32.9	-33.8745	4.73022
33	-34.4849	4.76074
33.1	-33.8745	4.82178
33.2	-34.1797	4.79126
33.3	-34.1797	4.85229
33.4	-34.4849	4.79126
33.5	-34.4849	4.76074
33.6	-34.1797	4.66919
33.7	-34.1797	4.60815
33.8	-33.8745	4.63867
33.9	-34.1797	4.66919
34	-34.1797	4.63867
34.1	-33.8745	4.60815
34.2	-34.1797	4.63867
34.3	-34.1797	4.85229
34.4	-34.1797	4.82178
34.5	-34.1797	4.69971
34.6	-34.1797	4.63867
34.7	-34.1797	4.79126
34.8	-34.4849	4.85229
34.9	-34.1797	4.69971
35	-34.1797	4.63867
35.1	-34.4849	4.82178
35.2	-34.4849	4.73022
35.3	-34.1797	4.63867
35.4	-34.4849	4.63867
35.5	-34.4849	4.69971
35.6	-34.4849	4.73022
35.7	-34.79	4.76074
35.8	-34.79	4.82178
35.9	-35.0952	4.82178
36	-35.0952	4.79126
36.1	-34.79	4.66919
36.2	-35.0952	4.60815
36.3	-35.4004	4.63867
36.4	-35.0952	4.69971
36.5	-36.0107	4.85229
36.6	-35.7056	4.85229
36.7	-35.4004	4.69971
36.8	-35.4004	4.63867
36.9	-35.4004	4.66919
37	-35.4004	4.69971
37.1	-35.7056	4.69971
37.2	-35.4004	4.66919
37.3	-35.4004	4.69971
37.4	-35.4004	4.73022
37.5	-35.7056	4.79126
37.6	-35.4004	4.76074
37.7	-36.0107	4.79126
37.8	-36.0107	4.85229
37.9	-36.3159	4.82178
38	-36.3159	4.85229
38.1	-36.3159	4.63867
38.2	-36.3159	4.66919
38.3	-36.6211	4.66919
38.4	-36.6211	4.76074
38.5	-36.9263	4.82178
38.6	-36.6211	4.79126
38.7	-36.9263	4.85229
38.8	-36.6211	4.82178
38.9	-36.6211	4.73022
39	-36.6211	4.66919
39.1	-36.3159	4.63867
39.2	-36.6211	4.76074
39.3	-36.9263	4.76074
39.4	-37.2314	4.79126
39.5	-37.2314	4.79126
39.6	-37.2314	4.85229
39.7	-37.5366	4.82178
39.8	-37.2314	4.82178
39.9	-37.2314	4.79126
40	-37.5366	4.85229
40.1	-38.147	4.85229
40.2	-39.6729	-0.213623
40.3	-148.315	-0.274658
40.4	-488.586	-0.274658
40.5	-662.537	-0.274658
40.6	-664.063	-0.274658
40.7	-665.588	-0.335693
40.8	-667.419	-0.274658
40.9	-666.809	-0.335693
41	-665.588	-0.366211
41.1	-664.978	-0.305176
41.2	-667.725	-0.183105
41.3	-668.335	-0.213623
41.4	-666.809	-0.152588
41.5	-663.757	-0.274658
41.6	-664.368	-0.305176
41.7	-665.894	-0.366211
41.8	-666.809	-0.335693
41.9	-666.504	-0.305176
42	-666.809	-0.244141
42.1	-668.335	-0.244141
42.2	-668.64	-0.305176
42.3	-667.725	-0.305176
42.4	-666.199	-0.366211
42.5	-667.114	-0.335693
42.6	-668.945	-0.335693
42.7	-668.945	-0.305176
42.8	-669.25	-0.274658
42.9	-668.03	-0.183105
43	-667.419	-0.274658
43.1	-668.945	-0.335693
43.2	-671.692	-0.305176
43.3	-671.387	-0.183105
43.4	-671.082	-0.152588
43.5	-669.25	-0.183105
43.6	-669.556	-0.244141
43.7	-671.082	-0.366211
43.8	-671.387	-0.366211
43.9	-671.692	-0.305176
44	-671.082	-0.305176
44.1	-670.166	-0.335693
44.2	-668.335	-0.274658
44.3	-667.419	-0.274658
44.4	-665.283	-0.183105
44.5	-663.147	-0.183105
44.6	-663.452	-0.274658
44.7	-665.588	-0.305176
44.8	-666.504	-0.213623
44.9	-665.894	-0.152588
45	-664.063	-0.152588
45.1	-663.452	-0.274658
45.2	-664.368	-0.305176
45.3	-664.673	-0.335693
45.4	-665.588	-0.366211
45.5	-666.199	-0.366211
45.6	-666.504	-0.396729
45.7	-666.809	-0.366211
45.8	-668.03	-0.274658
45.9	-668.03	-0.274658
46	-666.809	-0.213623
46.1	-666.199	-0.274658
46.2	-667.114	-0.335693
46.3	-669.25	-0.305176
46.4	-671.387	-0.274658
46.5	-670.471	-0.305176
46.6	-668.64	-0.366211
46.7	-666.809	-0.366211
46.8	-666.809	-0.274658
46.9	-668.945	-0.274658
47	-668.335	-0.335693
47.1	-668.945	-0.244141
47.2	-670.776	-0.305176
47.3	-671.692	-0.244141
47.4	-672.913	-0.244141
47.5	-672.913	-0.152588
47.6	-671.387	-0.183105
47.7	-669.861	-0.213623
47.8	-669.861	-0.183105
47.9	-671.082	-0.152588
48	-669.861	-0.183105
48.1	-670.471	-0.183105
48.2	-673.218	-0.244141
48.3	-674.133	-0.213623
48.4	-673.523	-0.183105
48.5	-671.997	-0.244141
48.6	-671.997	-0.305176
48.7	-671.387	-0.335693
48.8	-669.861	-0.366211
48.9	-669.556	-0.366211
49	-669.25	-0.305176
49.1	-670.166	-0.244141
49.2	-668.64	-0.305176
49.3	-668.64	-0.213623
49.4	-670.166	-0.213623
49.5	-671.692	-0.213623
49.6	-670.471	-0.305176
49.7	-668.945	-0.335693
49.8	-671.692	-0.274658
49.9	-673.828	-0.274658
50	-671.692	-0.244141
50.1	-673.828	-5.15747
50.2	-761.108	-5.12695
50.3	-1082.76	-5.09644
50.4	-1275.02	-5.15747
50.5	-1283.87	-5.24902
50.6	-1283.26	-5.24902
50.7	-1282.96	-5.31006
50.8	-1281.13	-5.21851
50.9	-1279.6	-5.18799
51	-1278.38	-5.18799
51.1	-1278.69	-5.27954
51.2	-1277.77	-5.27954
51.3	-1276.86	-5.21851
51.4	-1277.47	-5.15747
51.5	-1277.47	-5.12695
51.6	-1275.94	-5.15747
51.7	-1277.47	-5.18799
51.8	-1277.47	-5.12695
51.9	-1275.63	-5.15747
52	-1277.47	-5.15747
52.1	-1277.47	-5.15747
52.2	-1279.3	-5.15747
52.3	-1278.69	-5.15747
52.4	-1275.02	-5.12695
52.5	-1275.63	-5.12695
52.6	-1280.82	-5.15747
52.7	-1280.52	-5.18799
52.8	-1273.5	-5.21851
52.9	-1272.89	-5.18799
53	-1275.33	-5.31006
53.1	-1272.28	-5.34058
53.2	-1273.8	-5.24902
53.3	-1272.58	-5.24902
53.4	-1270.45	-5.15747
53.5	-1270.14	-5.15747
53.6	-1273.5	-5.15747
53.7	-1277.77	-5.18799
53.8	-1280.21	-5.18799
53.9	-1280.82	-5.15747
54	-1277.47	-5.12695
54.1	-1272.28	-5.12695
54.2	-1271.36	-5.18799
54.3	-1272.28	-5.21851
54.4	-1274.72	-5.27954
54.5	-1277.77	-5.27954
54.6	-1282.04	-5.34058
54.7	-1280.52	-5.31006
54.8	-1277.77	-5.34058
54.9	-1278.38	-5.27954
55	-1276.86	-5.34058
55.1	-1274.72	-5.34058
55.2	-1276.86	-5.34058
55.3	-1274.11	-5.27954
55.4	-1272.89	-5.31006
55.5	-1275.33	-5.27954
55.6	-1275.33	-5.27954
55.7	-1271.97	-5.27954
55.8	-1268.92	-5.27954
55.9	-1270.14	-5.18799
56	-1275.02	-5.24902
56.1	-1274.41	-5.15747
56.2	-1268.62	-5.18799
56.3	-1265.26	-5.18799
56.4	-1265.56	-5.15747
56.5	-1265.26	-5.24902
56.6	-1265.56	-5.24902
56.7	-1267.7	-5.27954
56.8	-1268.31	-5.34058
56.9	-1265.56	-5.34058
57	-1261.29	-5.31006
57.1	-1259.16	-5.27954
57.2	-1261.9	-5.27954
57.3	-1265.87	-5.21851
57.4	-1272.28	-5.15747
57.5	-1273.8	-5.15747
57.6	-1274.11	-5.18799
57.7	-1273.5	-5.34058
57.8	-1270.14	-5.27954
57.9	-1269.23	-5.27954
58	-1272.28	-5.34058
58.1	-1271.97	-5.27954
58.2	-1267.7	-5.24902
58.3	-1265.26	-5.31006
58.4	-1266.17	-5.21851
58.5	-1267.7	-5.21851
58.6	-1272.89	-5.15747
58.7	-1278.38	-5.21851
58.8	-1275.94	-5.24902
58.9	-1270.45	-5.27954
59	-1273.19	-5.27954
59.1	-1278.69	-5.27954
59.2	-1276.55	-5.31006
59.3	-1272.89	-5.34058
59.4	-1270.14	-5.24902
59.5	-1272.58	-5.18799
59.6	-1280.82	-5.15747
59.7	-1282.65	-5.18799
59.8	-1280.52	-5.18799
59.9	-1280.52	-5.21851
60	-1282.96	-5.31006
60.1	-1286.01	-10.2844
60.2	-1293.64	-10.3149
60.3	-1477.05	-10.2844
60.4	-1783.75	-10.2234
60.5	-1864.32	-10.1929
60.6	-1855.16	-10.1929
60.7	-1860.35	-10.1318
60.8	-1865.84	-10.0708
60.9	-1860.66	-10.1013
61	-1856.99	-10.1929
61.1	-1858.52	-10.3149
61.2	-1864.01	-10.3149
61.3	-1870.12	-10.2234
61.4	-1868.59	-10.3149
61.5	-1860.96	-10.2844
61.6	-1857.6	-10.2539
61.7	-1858.52	-10.1624
61.8	-1859.44	-10.1318
61.9	-1857.3	-10.1318
62	-1860.35	-10.1318
62.1	-1863.71	-10.1318
62.2	-1863.4	-10.1624
62.3	-1860.96	-10.1929
62.4	-1864.93	-10.2234
62.5	-1871.03	-10.3455
62.6	-1868.29	-10.2844
62.7	-1867.68	-10.2539
62.8	-1868.9	-10.1929
62.9	-1862.49	-10.1929
63	-1856.99	-10.1624
63.1	-1856.69	-10.1013
63.2	-1854.55	-10.1318
63.3	-1854.25	-10.1318
63.4	-1858.22	-10.3149
63.5	-1857.6	-10.2844
63.6	-1853.64	-10.2844
63.7	-1857.91	-10.2539
63.8	-1863.4	-10.2539
63.9	-1865.23	-10.2539
64	-1863.1	-10.2234
64.1	-1857.6	-10.2539
64.2	-1854.86	-10.3455
64.3	-1858.22	-10.2844
64.4	-1858.83	-10.2844
64.5	-1855.16	-10.2844
64.6	-1852.42	-10.3149
64.7	-1853.64	-10.3455
64.8	-1860.35	-10.2844
64.9	-1858.52	-10.2539
65	-1858.22	-10.1929
65.1	-1860.66	-10.1929
65.2	-1854.55	-10.1013
65.3	-1846.92	-10.1318
65.4	-1844.48	-10.1624
65.5	-1848.14	-10.2234
65.6	-1847.53	-10.2539
65.7	-1849.98	-10.1929
65.8	-1850.59	-10.2844
65.9	-1849.98	-10.2539
66	-1849.98	-10.1624
66.1	-1849.67	-10.1318
66.2	-1850.89	-10.1013
66.3	-1851.5	-10.1318
66.4	-1851.5	-10.1929
66.5	-1850.28	-10.1624
66.6	-1844.79	-10.1318
66.7	-1844.18	-10.1624
66.8	-1838.99	-10.3149
66.9	-1838.99	-10.3149
67	-1842.65	-10.2844
67.1	-1842.96	-10.2844
67.2	-1849.67	-10.2234
67.3	-1854.55	-10.1929
67.4	-1856.69	-10.1318
67.5	-1860.35	-10.1318
67.6	-1853.03	-10.1624
67.7	-1846.01	-10.1318
67.8	-1848.75	-10.1929
67.9	-1855.47	-10.1318
68	-1853.03	-10.1013
68.1	-1845.4	-10.1318
68.2	-1848.45	-10.2844
68.3	-1855.16	-10.2844
68.4	-1865.23	-10.1318
68.5	-1867.37	-10.1013
68.6	-1860.96	-10.2539
68.7	-1854.55	-10.2539
68.8	-1852.72	-10.1318
68.9	-1850.59	-10.1318
69	-1853.33	-10.1624
69.1	-1860.05	-10.2844
69.2	-1857.6	-10.3455
69.3	-1860.35	-10.2234
69.4	-1861.57	-10.1013
69.5	-1856.38	-10.1624
69.6	-1852.42	-10.2539
69.7	-1847.84	-10.2844
69.8	-1846.31	-10.1929
69.9	-1843.57	-10.0708
70	-1844.79	-10.1929
70.1	-1850.89	-10.2844
70.2	-1853.94	-10.2539
70.3	-1854.86	-15.1367
70.4	-1936.65	-15.1062
70.5	-2228.39	-15.1672
70.6	-2391.66	-15.2283
70.7	-2395.94	-15.2283
70.8	-2401.43	-15.1367
70.9	-2408.75	-15.1978
71	-2419.43	-15.2588
71.1	-2416.08	-15.1978
71.2	-2403.87	-15.0757
71.3	-2397.77	-15.3503
71.4	-2411.19	-15.1978
71.5	-2417.91	-15.0757
71.6	-2421.26	-15.1062
71.7	-2418.21	-15.1062
71.8	-2403.87	-15.1367
71.9	-2395.02	-15.1978
72	-2388.92	-15.2588
72.1	-2392.27	-15.2893
72.2	-2398.07	-15.2283
72.3	-2400.51	-15.1367
72.4	-2393.49	-15.1367
72.5	-2390.75	-15.1367
72.6	-2398.99	-15.1978
72.7	-2398.99	-15.2893
72.8	-2392.88	-15.1367
72.9	-2387.08	-15.1367
73	-2380.68	-15.1978
73.1	-2380.37	-15.2588
73.2	-2378.85	-15.2588
73.3	-2381.9	-15.1062
73.4	-2382.81	-15.1672
73.5	-2372.74	-15.3198
73.6	-2368.16	-15.2283
73.7	-2368.77	-15.1062
73.8	-2364.81	-15.1978
73.9	-2361.45	-15.2893
74	-2369.38	-15.1672
74.1	-2376.4	-15.1367
74.2	-2381.9	-15.1062
74.3	-2376.1	-15.1367
74.4	-2367.55	-15.1672
74.5	-2369.38	-15.2588
74.6	-2371.52	-15.2588
74.7	-2367.25	-15.2893
74.8	-2373.96	-15.2893
74.9	-2384.34	-15.2588
75	-2391.36	-15.2893
75.1	-2393.8	-15.2588
75.2	-2390.44	-15.1978
75.3	-2374.57	-15.1367
75.4	-2359.92	-15.1367
75.5	-2359.01	-15.1672
75.6	-2371.52	-15.1062
75.7	-2373.05	-15.0757
75.8	-2373.05	-15.1367
75.9	-2385.56	-15.1367
76	-2378.85	-15.1672
76.1	-2371.22	-15.1367
76.2	-2380.37	-15.1672
76.3	-2375.18	-15.1672
76.4	-2363.28	-15.1978
76.5	-2365.11	-15.2588
76.6	-2379.15	-15.3198
76.7	-2385.86	-15.2588
76.8	-2372.13	-15.2893
76.9	-2366.64	-15.2283
77	-2374.27	-15.2893
77.1	-2377.32	-15.2588
77.2	-2364.81	-15.1978
77.3	-2362.37	-15.1367
77.4	-2363.59	-15.1672
77.5	-2363.59	-15.1367
77.6	-2365.72	-15.1367
77.7	-2366.94	-15.1978
77.8	-2364.81	-15.2588
77.9	-2364.5	-15.2283
78	-2361.45	-15.2893
78.1	-2363.28	-15.2588
78.2	-2361.45	-15.2588
78.3	-2357.79	-15.1672
78.4	-2362.67	-15.1367
78.5	-2359.01	-15.1367
78.6	-2350.16	-15.2588
78.7	-2347.11	-15.3198
78.8	-2351.99	-15.2893
78.9	-2362.06	-15.1978
79	-2361.76	-15.1672
79.1	-2365.11	-15.1062
79.2	-2364.81	-15.0757
79.3	-2350.16	-15.1062
79.4	-2343.44	-15.2588
79.5	-2345.58	-15.2893
79.6	-2353.82	-15.2283
79.7	-2355.65	-15.2283
79.8	-2352.6	-15.2588
79.9	-2350.77	-15.2588
80	-2351.07	-15.3198
80.1	-2359.92	-20.2637
80.2	-2385.56	-20.2026
80.3	-2596.44	-20.2637
80.4	-2825.01	-20.2637
80.5	-2853.39	-20.2942
80.6	-2836.91	-20.2332
80.7	-2836	-20.2026
80.8	-2842.41	-20.1721
80.9	-2843.32	-20.1721
81	-2842.1	-20.1721
81.1	-2826.23	-20.1416
81.2	-2812.81	-20.1111
81.3	-2821.35	-20.1416
81.4	-2827.45	-20.1416
81.5	-2839.66	-20.1111
81.6	-2840.88	-20.1416
81.7	-2840.58	-20.1111
81.8	-2836.3	-20.1721
81.9	-2843.32	-20.1416
82	-2850.04	-20.1721
82.1	-2839.97	-20.2332
82.2	-2836.91	-20.2026
82.3	-2830.2	-20.2332
82.4	-2830.81	-20.2026
82.5	-2834.78	-20.2026
82.6	-2833.86	-20.1416
82.7	-2836	-20.1416
82.8	-2834.17	-20.2026
82.9	-2837.83	-20.2637
83	-2847.6	-20.3552
83.1	-2839.66	-20.3247
83.2	-2823.49	-20.3247
83.3	-2818.91	-20.2942
83.4	-2814.94	-20.2332
83.5	-2823.49	-20.2637
83.6	-2836.91	-20.2332
83.7	-2846.98	-20.2332
83.8	-2856.75	-20.2026
83.9	-2865.6	-20.2637
84	-2863.16	-20.2942
84.1	-2850.34	-20.2332
84.2	-2849.43	-20.2637
84.3	-2834.47	-20.2637
84.4	-2815.55	-20.2942
84.5	-2809.45	-20.3247
84.6	-2819.21	-20.2332
84.7	-2826.54	-20.2026
84.8	-2823.18	-20.1721
84.9	-2814.94	-20.1721
85	-2807.92	-20.3247
85.1	-2812.81	-20.2637
85.2	-2828.37	-20.2637
85.3	-2837.22	-20.1111
85.4	-2853.09	-20.1111
85.5	-2866.52	-20.1111
85.6	-2858.28	-20.1111
85.7	-2836.91	-20.1416
85.8	-2811.28	-20.1111
85.9	-2789.31	-20.2026
86	-2785.03	-20.2637
86.1	-2786.25	-20.2332
86.2	-2803.65	-20.1416
86.3	-2814.03	-20.1416
86.4	-2804.26	-20.3247
86.5	-2806.7	-20.2026
86.6	-2825.93	-20.1721
86.7	-2833.86	-20.2332
86.8	-2831.12	-20.2637
86.9	-2825.62	-20.2332
87	-2814.33	-20.1416
87.1	-2811.28	-20.2332
87.2	-2817.69	-20.2332
87.3	-2822.57	-20.1111
87.4	-2817.69	-20.1416
87.5	-2814.03	-20.2942
87.6	-2819.52	-20.1416
87.7	-2812.81	-20.1111
87.8	-2803.65	-20.2332
87.9	-2799.38	-20.2942
88	-2790.22	-20.1721
88.1	-2798.77	-20.2026
88.2	-2813.42	-20.3247
88.3	-2816.77	-20.1721
88.4	-2817.99	-20.1721
88.5	-2836.3	-20.2942
88.6	-2838.13	-20.1416
88.7	-2828.37	-20.1721
88.8	-2826.54	-20.2942
88.9	-2819.52	-20.1721
89	-2803.65	-20.0806
89.1	-2799.68	-20.1111
89.2	-2806.4	-20.1721
89.3	-2817.69	-20.2942
89.4	-2812.81	-20.2637
89.5	-2804.87	-20.2026
89.6	-2806.7	-20.1111
89.7	-2826.54	-20.1721
89.8	-2835.08	-20.3247
89.9	-2817.08	-20.2332
90	-2798.77	-20.1416
90.1	-2791.44	-20.2637
90.2	-2788.7	-20.3552
90.3	-2785.64	-25.2991
90.4	-2866.52	-25.238
90.5	-3156.74	-25.1465
90.6	-3309.63	-25.1465
90.7	-3290.41	-25.177
90.8	-3275.15	-25.177
90.9	-3267.52	-25.2075
91	-3273.01	-25.116
91.1	-3262.33	-25.116
91.2	-3258.06	-25.177
91.3	-3269.65	-25.2991
91.4	-3273.01	-25.238
91.5	-3266.3	-25.238
91.6	-3240.05	-25.238
91.7	-3217.16	-25.177
91.8	-3224.49	-25.116
91.9	-3246.77	-25.177
92	-3263.55	-25.1465
92.1	-3264.16	-25.1465
92.2	-3262.02	-25.2991
92.3	-3262.33	-25.2686
92.4	-3270.26	-25.238
92.5	-3283.39	-25.238
92.6	-3279.11	-25.238
92.7	-3276.67	-25.2686
92.8	-3291.63	-25.2075
92.9	-3305.36	-25.2075
93	-3295.29	-25.1465
93.1	-3272.71	-25.1465
93.2	-3257.75	-25.177
93.3	-3242.8	-25.2991
93.4	-3245.85	-25.177
93.5	-3238.22	-25.116
93.6	-3209.23	-25.177
93.7	-3204.35	-25.1465
93.8	-3227.54	-25.2075
93.9	-3222.96	-25.2075
94	-3220.21	-25.2686
94.1	-3231.2	-25.2991
94.2	-3222.96	-25.2686
94.3	-3224.18	-25.2686
94.4	-3235.78	-25.177
94.5	-3247.68	-25.1465
94.6	-3246.46	-25.116
94.7	-3244.02	-25.177
94.8	-3262.94	-25.2075
94.9	-3269.96	-25.177
95	-3263.24	-25.2686
95.1	-3250.73	-25.2991
95.2	-3250.12	-25.2075
95.3	-3262.02	-25.0854
95.4	-3259.89	-25.1465
95.5	-3249.21	-25.2686
95.6	-3237.92	-25.1465
95.7	-3229.37	-25.0854
95.8	-3227.54	-25.2686
95.9	-3222.35	-25.238
96	-3215.94	-25.1465
96.1	-3217.77	-25.177
96.2	-3223.88	-25.1465
96.3	-3222.96	-25.2991
96.4	-3215.03	-25.2991
96.5	-3198.55	-25.1465
96.6	-3198.55	-25.2075
96.7	-3226.93	-25.238
96.8	-3240.36	-25.116
96.9	-3223.57	-25.2991
97	-3219.3	-25.177
97.1	-3215.64	-25.1465
97.2	-3218.08	-25.2991
97.3	-3225.71	-25.1465
97.4	-3228.15	-25.177
97.5	-3214.72	-25.3296
97.6	-3208.31	-25.177
97.7	-3193.66	-25.177
97.8	-3183.29	-25.2991
97.9	-3184.51	-25.1465
98	-3192.14	-25.116
98.1	-3195.8	-25.116
98.2	-3186.34	-25.1465
98.3	-3191.22	-25.2991
98.4	-3202.82	-25.177
98.5	-3206.18	-25.177
98.6	-3206.18	-25.3296
98.7	-3201.6	-25.2075
98.8	-3196.11	-25.177
98.9	-3178.41	-25.2686
99	-3165.28	-25.2991
99.1	-3188.78	-25.2075
99.2	-3219.6	-25.116
99.3	-3220.83	-25.0854
99.4	-3205.57	-25.1465
99.5	-3187.87	-25.238
99.6	-3189.39	-25.2686
99.7	-3212.89	-25.177
99.8	-3223.88	-25.116
99.9	-3223.57	-25.116
100	-3215.94	-30.2429
100.1	-3211.06	-30.2124
100.2	-3324.89	-30.1208
100.3	-3551.64	-30.1208
100.4	-3612.06	-30.1208
100.5	-3604.74	-30.2124
100.6	-3613.59	-30.304
100.7	-3630.37	-30.0903
100.8	-3635.56	-30.1514
100.9	-3636.47	-30.2734
101	-3648.68	-30.0903
101.1	-3642.88	-30.0903
101.2	-3634.64	-30.1208
101.3	-3626.4	-30.2734
101.4	-3609.31	-30.2124
101.5	-3590.09	-30.0598
101.6	-3570.56	-30.1819
101.7	-3558.96	-30.2124
101.8	-3556.21	-30.0598
101.9	-3568.12	-30.2124
102	-3598.33	-30.1208
102.1	-3595.28	-30.0903
102.2	-3580.93	-30.2734
102.3	-3570.56	-30.0903
102.4	-3558.04	-30.1514
102.5	-3565.98	-30.304
102.6	-3578.8	-30.1514
102.7	-3582.76	-30.1514
102.8	-3585.82	-30.304
102.9	-3594.67	-30.1208
103	-3602.6	-30.304
103.1	-3610.84	-30.0903
103.2	-3601.38	-30.2429
103.3	-3599.24	-30.1208
103.4	-3598.33	-30.2734
103.5	-3584.29	-30.1208
103.6	-3555.91	-30.2734
103.7	-3532.71	-30.1819
103.8	-3545.84	-30.1208
103.9	-3560.18	-30.304
104	-3562.93	-30.1514
104.1	-3568.73	-30.1208
104.2	-3572.69	-30.2734
104.3	-3581.24	-30.1208
104.4	-3588.26	-30.1819
104.5	-3576.66	-30.2734
104.6	-3566.59	-30.0903
104.7	-3571.47	-30.2124
104.8	-3589.48	-30.1819
104.9	-3577.58	-30.0598
105	-3563.54	-30.2429
105.1	-3570.56	-30.0903
105.2	-3579.71	-30.2429
105.3	-3577.58	-30.0903
105.4	-3559.88	-30.1514
105.5	-3555.91	-30.2429
105.6	-3545.53	-30.0598
105.7	-3529.97	-30.2429
105.8	-3523.25	-30.0903
105.9	-3521.73	-30.1514
106	-3541.87	-30.2124
106.1	-3560.18	-30.0598
106.2	-3556.52	-30.1819
106.3	-3558.65	-30.1514
106.4	-3553.16	-30.0903
106.5	-3526	-30.2429
106.6	-3514.71	-30.0598
106.7	-3528.14	-30.1514
106.8	-3535.46	-30.2124
106.9	-3536.68	-30.1208
107	-3553.47	-30.1208
107.1	-3544.31	-30.2124
107.2	-3532.1	-30.0598
107.3	-3532.41	-30.2429
107.4	-3530.58	-30.0903
107.5	-3520.2	-30.2429
107.6	-3516.54	-30.0903
107.7	-3532.41	-30.2429
107.8	-3533.02	-30.1819
107.9	-3512.57	-30.1514
108	-3505.25	-30.1514
108.1	-3517.76	-30.2429
108.2	-3529.36	-30.1208
108.3	-3533.63	-30.1208
108.4	-3533.33	-30.1819
108.5	-3501.89	-30.1819
108.6	-3476.26	-30.2124
108.7	-3460.69	-30.1514
108.8	-3455.81	-30.1514
108.9	-3463.13	-30.1208
109	-3473.82	-30.2734
109.1	-3486.33	-30.1208
109.2	-3501.28	-30.0903
109.3	-3504.94	-30.2124
109.4	-3507.39	-30.2429
109.5	-3515.93	-30.1514
109.6	-3521.73	-30.2429
109.7	-3507.39	-30.2429
109.8	-3490.91	-30.1514
109.9	-3499.45	-30.2734
110	-3511.05	-30.2124
110.1	-3508	-35.1257
110.2	-3545.84	-35.2173
110.3	-3752.75	-35.0647
110.4	-3902.28	-35.2478
110.5	-3898.62	-35.1257
110.6	-3869.02	-35.0647
110.7	-3850.1	-35.1868
110.8	-3871.46	-35.1257
110.9	-3884.28	-35.1257
111	-3851.62	-35.2478
111.1	-3820.8	-35.0647
111.2	-3795.78	-35.1257
111.3	-3772.58	-35.2173
111.4	-3797	-35.0647
111.5	-3811.95	-35.2173
111.6	-3831.18	-35.1563
111.7	-3842.77	-35.0952
111.8	-3817.14	-35.2173
111.9	-3785.1	-35.2173
112	-3767.09	-35.1257
112.1	-3763.12	-35.1563
112.2	-3770.75	-35.2783
112.3	-3794.25	-35.1563
112.4	-3810.73	-35.1257
112.5	-3818.05	-35.2173
112.6	-3816.22	-35.2173
112.7	-3806.15	-35.0952
112.8	-3797.61	-35.0952
112.9	-3802.8	-35.2173
113	-3812.87	-35.0647
113.1	-3817.44	-35.1257
113.2	-3802.19	-35.2478
113.3	-3780.82	-35.0647
113.4	-3771.06	-35.1257
113.5	-3772.28	-35.2173
113.6	-3766.48	-35.0647
113.7	-3732.3	-35.2173
113.8	-3720.7	-35.1868
113.9	-3739.32	-35.0952
114	-3728.94	-35.1868
114.1	-3720.7	-35.3088
114.2	-3729.86	-35.2173
114.3	-3750.31	-35.1257
114.4	-3749.39	-35.1563
114.5	-3727.11	-35.2783
114.6	-3714.9	-35.1868
114.7	-3715.52	-35.0647
114.8	-3706.67	-35.2173
114.9	-3710.94	-35.1563
115	-3716.13	-35.0952
115.1	-3710.63	-35.1868
115.2	-3710.63	-35.2173
115.3	-3697.51	-35.0952
115.4	-3686.52	-35.1868
115.5	-3693.85	-35.2478
115.6	-3706.36	-35.1257
115.7	-3742.37	-35.2173
115.8	-3773.19	-35.2783
115.9	-3777.47	-35.1257
116	-3771.06	-35.2783
116.1	-3751.83	-35.0952
116.2	-3721.62	-35.1868
116.3	-3706.97	-35.1257
116.4	-3701.48	-35.0952
116.5	-3689.88	-35.2173
116.6	-3690.8	-35.1257
116.7	-3709.11	-35.2478
116.8	-3707.58	-35.1257
116.9	-3704.83	-35.0952
117	-3697.2	-35.2478
117.1	-3684.39	-35.2478
117.2	-3677.37	-35.1563
117.3	-3667.6	-35.1563
117.4	-3652.95	-35.2783
117.5	-3654.17	-35.2173
117.6	-3643.49	-35.1257
117.7	-3642.88	-35.0952
117.8	-3648.38	-35.2173
117.9	-3646.55	-35.2173
118	-3659.06	-35.0647
118.1	-3661.5	-35.0647
118.2	-3667.3	-35.1868
118.3	-3670.04	-35.2173
118.4	-3654.17	-35.0952
118.5	-3657.84	-35.1257
118.6	-3663.02	-35.2783
118.7	-3654.48	-35.1868
118.8	-3656.01	-35.0952
118.9	-3666.08	-35.1563
119	-3673.71	-35.2478
119.1	-3691.41	-35.2783
119.2	-3724.67	-35.1257
119.3	-3733.22	-35.1257
119.4	-3717.96	-35.1257
119.5	-3694.15	-35.1868
119.6	-3694.15	-35.0952
119.7	-3726.5	-35.0952
119.8	-3749.08	-35.2173
119.9	-3744.2	-35.0647
120	-3735.96	-35.2783
120.1	-3712.16	-35.1257
120.2	-3670.35	-40.1001
120.3	-3709.72	-40.2527
120.4	-3947.75	-40.1917
120.5	-4092.71	-40.1306
120.6	-4105.22	-40.2222
120.7	-4120.18	-40.2832
120.8	-4126.28	-40.1306
120.9	-4101.26	-40.0696
121	-4064.94	-40.1611
121.1	-4026.79	-40.2222
121.2	-4001.46	-40.1306
121.3	-3983.46	-40.1001
121.4	-3966.06	-40.0696
121.5	-3951.42	-40.1611
121.6	-3951.42	-40.2832
121.7	-3957.82	-40.2832
121.8	-3955.99	-40.2222
121.9	-3955.69	-40.1306
122	-3968.81	-40.1001
122.1	-3972.17	-40.1611
122.2	-3994.45	-40.2222
122.3	-4008.79	-40.2527
122.4	-3999.02	-40.1611
122.5	-3980.71	-40.1306
122.6	-3963.01	-40.1611
122.7	-3970.03	-40.2527
122.8	-3972.47	-40.2527
122.9	-3961.79	-40.3137
123	-3966.06	-40.2222
123.1	-3978.27	-40.1306
123.2	-3978.88	-40.1001
123.3	-3980.41	-40.0696
123.4	-3990.78	-40.1611
123.5	-3988.95	-40.2832
123.6	-3968.51	-40.1306
123.7	-3957.21	-40.1001
123.8	-3951.42	-40.1611
123.9	-3915.1	-40.3137
124	-3905.33	-40.1917
124.1	-3927.31	-40.0696
124.2	-3941.35	-40.2222
124.3	-3927.92	-40.1306
124.4	-3896.79	-40.1001
124.5	-3887.94	-40.2222
124.6	-3891.6	-40.1306
124.7	-3883.67	-40.1001
124.8	-3869.02	-40.2832
124.9	-3882.14	-40.1917
125	-3877.26	-40.1917
125.1	-3889.16	-40.1611
125.2	-3906.86	-40.0696
125.3	-3878.17	-40.2222
125.4	-3841.55	-40.2222
125.5	-3842.47	-40.0696
125.6	-3887.33	-40.1001
125.7	-3911.74	-40.1306
125.8	-3893.43	-40.2527
125.9	-3892.52	-40.2527
126	-3892.52	-40.1306
126.1	-3871.77	-40.1001
126.2	-3867.49	-40.2527
126.3	-3881.23	-40.0696
126.4	-3883.97	-40.2222
126.5	-3884.58	-40.1001
126.6	-3896.18	-40.2222
126.7	-3882.45	-40.1917
126.8	-3858.34	-40.1306
126.9	-3838.2	-40.2222
127	-3814.09	-40.1306
127.1	-3793.03	-40.1917
127.2	-3805.54	-40.0696
127.3	-3826.9	-40.2222
127.4	-3823.85	-40.1917
127.5	-3816.53	-40.1001
127.6	-3824.46	-40.2527
127.7	-3834.53	-40.1306
127.8	-3831.79	-40.1306
127.9	-3804.32	-40.2222
128	-3782.04	-40.3137
128.1	-3797	-40.2527
128.2	-3837.89	-40.1001
128.3	-3872.07	-40.0696
128.4	-3857.42	-40.1001
128.5	-3818.66	-40.2222
128.6	-3786.93	-40.2222
128.7	-3789.98	-40.1001
128.8	-3797.61	-40.1306
128.9	-3791.81	-40.1306
129	-3822.02	-40.1611
129.1	-3845.83	-40.1611
129.2	-3830.87	-40.2222
129.3	-3819.58	-40.1306
129.4	-3825.99	-40.1001
129.5	-3814.7	-40.2222
129.6	-3815.61	-40.1306
129.7	-3839.42	-40.1917
129.8	-3843.38	-40.2222
129.9	-3834.53	-40.1306
130	-3815.61	-40.1917
130.1	-3817.75	-45.2271
130.2	-3850.71	-45.0439
130.3	-4006.96	-45.2271
130.4	-4225.46	-45.0745
130.5	-4290.77	-45.2576
130.6	-4270.32	-45.105
130.7	-4261.47	-45.1355
130.8	-4274.9	-45.2271
130.9	-4270.32	-45.0745
131	-4216.31	-45.166
131.1	-4189.76	-45.2271
131.2	-4200.13	-45.1965
131.3	-4181.21	-45.0745
131.4	-4154.97	-45.0745
131.5	-4147.34	-45.2271
131.6	-4133	-45.0439
131.7	-4127.81	-45.2271
131.8	-4128.11	-45.0745
131.9	-4133	-45.1965
132	-4159.24	-45.1355
132.1	-4172.36	-45.2271
132.2	-4169.01	-45.1355
132.3	-4178.16	-45.105
132.4	-4154.97	-45.166
132.5	-4146.42	-45.0745
132.6	-4159.55	-45.2271
132.7	-4174.19	-45.0745
132.8	-4191.59	-45.2271
132.9	-4178.47	-45.105
133	-4140.01	-45.2271
133.1	-4137.57	-45.1355
133.2	-4146.73	-45.166
133.3	-4151.31	-45.0439
133.4	-4186.1	-45.2271
133.5	-4197.08	-45.1355
133.6	-4192.2	-45.105
133.7	-4192.2	-45.2271
133.8	-4200.44	-45.105
133.9	-4200.44	-45.2271
134	-4172.67	-45.2576
134.1	-4154.66	-45.0745
134.2	-4159.85	-45.2271
134.3	-4154.97	-45.0745
134.4	-4129.33	-45.2271
134.5	-4143.68	-45.0745
134.6	-4169.01	-45.1965
134.7	-4162.9	-45.105
134.8	-4129.33	-45.2576
134.9	-4081.12	-45.105
135	-4058.84	-45.166
135.1	-4053.65	-45.2271
135.2	-4065.25	-45.0745
135.3	-4115.6	-45.166
135.4	-4154.05	-45.1355
135.5	-4158.94	-45.105
135.6	-4143.07	-45.2271
135.7	-4114.38	-45.0745
135.8	-4078.67	-45.2271
135.9	-4072.57	-45.1355
136	-4089.97	-45.1355
136.1	-4122.01	-45.1355
136.2	-4161.07	-45.1355
136.3	-4185.49	-45.1965
136.4	-4178.16	-45.0439
136.5	-4160.16	-45.1965
136.6	-4149.48	-45.0745
136.7	-4110.72	-45.2576
136.8	-4080.81	-45.0745
136.9	-4078.98	-45.2271
137	-4093.32	-45.1355
137.1	-4105.22	-45.1355
137.2	-4089.05	-45.2576
137.3	-4084.47	-45.105
137.4	-4098.82	-45.1355
137.5	-4087.52	-45.166
137.6	-4085.08	-45.0439
137.7	-4090.58	-45.1965
137.8	-4093.32	-45.0745
137.9	-4075.93	-45.166
138	-4057.31	-45.1355
138.1	-4064.64	-45.0745
138.2	-4108.28	-45.166
138.3	-4143.37	-45.1355
138.4	-4126.59	-45.1355
138.5	-4099.73	-45.166
138.6	-4095.76	-45.166
138.7	-4102.48	-45.105
138.8	-4099.73	-45.166
138.9	-4083.86	-45.1355
139	-4046.94	-45.0745
139.1	-4033.51	-45.1965
139.2	-4056.09	-45.0745
139.3	-4077.45	-45.2271
139.4	-4082.34	-45.0745
139.5	-4077.76	-45.1355
139.6	-4059.45	-45.0745
139.7	-4072.57	-45.1965
139.8	-4090.27	-45.1965
139.9	-4039.31	-45.1355
140	-4001.46	-45.2271
140.1	-4037.48	-45.105
140.2	-4068.91	-50.2625
140.3	-4112.85	-50.0793
140.4	-4254.15	-50.0793
140.5	-4410.4	-50.2319
140.6	-4436.95	-50.0793
140.7	-4451.6	-50.2625
140.8	-4472.96	-50.0488
140.9	-4473.27	-50.293
141	-4487.61	-50.0793
141.1	-4495.85	-50.2014
141.2	-4499.82	-50.1709
141.3	-4515.69	-50.1404
141.4	-4558.41	-50.2014
141.5	-4583.74	-50.1709
141.6	-4559.33	-50.1404
141.7	-4527.59	-50.1709
141.8	-4483.95	-50.1404
141.9	-4456.18	-50.0793
142	-4436.95	-50.2014
142.1	-4427.19	-50.0793
142.2	-4449.46	-50.0793
142.3	-4462.28	-50.2014
142.4	-4469.3	-50.0793
142.5	-4475.1	-50.2625
142.6	-4490.66	-50.1404
142.7	-4506.53	-50.2319
142.8	-4495.85	-50.2319
142.9	-4476.93	-50.1404
143	-4485.47	-50.2014
143.1	-4491.88	-50.2319
143.2	-4493.71	-50.0793
143.3	-4496.46	-50.1709
143.4	-4505.92	-50.2014
143.5	-4509.89	-50.0488
143.6	-4516.3	-50.2014
143.7	-4514.77	-50.0793
143.8	-4514.77	-50.2625
143.9	-4503.17	-50.0488
144	-4445.8	-50.0793
144.1	-4404.6	-50.2625
144.2	-4385.38	-50.1099
144.3	-4383.85	-50.1709
144.4	-4374.69	-50.2014
144.5	-4354.86	-50.1099
144.6	-4351.81	-50.2319
144.7	-4310.3	-50.1099
144.8	-4293.82	-50.0793
144.9	-4342.04	-50.2319
145	-4400.94	-50.0793
145.1	-4394.23	-50.2014
145.2	-4359.74	-50.2014
145.3	-4339.9	-50.0793
145.4	-4338.99	-50.2319
145.5	-4378.05	-50.1099
145.6	-4391.48	-50.1099
145.7	-4357.91	-50.1404
145.8	-4338.99	-50.2625
145.9	-4312.13	-50.1404
146	-4279.79	-50.1099
146.1	-4295.65	-50.1709
146.2	-4358.83	-50.0793
146.3	-4406.13	-50.1404
146.4	-4406.43	-50.2625
146.5	-4401.55	-50.1709
146.6	-4421.08	-50.0793
146.7	-4446.11	-50.1099
146.8	-4427.8	-50.2625
146.9	-4391.17	-50.2319
147	-4383.24	-50.1099
147.1	-4394.53	-50.0793
147.2	-4391.48	-50.2014
147.3	-4386.6	-50.2014
147.4	-4385.99	-50.1404
147.5	-4378.97	-50.0793
147.6	-4366.46	-50.0793
147.7	-4355.77	-50.0488
147.8	-4354.55	-50.0488
147.9	-4367.37	-50.1404
148	-4386.29	-50.1709
148.1	-4380.19	-50.2014
148.2	-4342.96	-50.2625
148.3	-4344.18	-50.1709
148.4	-4390.87	-50.0793
148.5	-4410.71	-50.0793
148.6	-4381.1	-50.2014
148.7	-4367.68	-50.2319
148.8	-4355.47	-50.0488
148.9	-4323.12	-50.0793
149	-4331.97	-50.1709
149.1	-4339.29	-50.2319
149.2	-4345.7	-50.1404
149.3	-4367.37	-50.0488
149.4	-4383.24	-50.1709
149.5	-4377.44	-50.2625
149.6	-4363.1	-50.0793
149.7	-4351.2	-50.1099
149.8	-4346.92	-50.2319
149.9	-4338.99	-50.2319
150	-4351.5	-50.1404
150.1	-4399.11	-55.0842
150.2	-4456.79	-55.1147
150.3	-4627.69	-55.2368
150.4	-4718.63	-55.0537
150.5	-4712.22	-55.0537
150.6	-4747.92	-55.2368
150.7	-4771.73	-55.2673
150.8	-4785.46	-55.1758
150.9	-4817.2	-55.1147
151	-4870.61	-55.0842
151.1	-4910.58	-55.2368
151.2	-4910.28	-55.0842
151.3	-4911.5	-55.0842
151.4	-4892.58	-55.1758
151.5	-4873.35	-55.2368
151.6	-4854.43	-55.1147
151.7	-4827.58	-55.0842
151.8	-4858.09	-55.2673
151.9	-4914.25	-55.1147
152	-4969.79	-55.0842
152.1	-5000.92	-55.2063
152.2	-5015.87	-55.1147
152.3	-5038.15	-55.0537
152.4	-5010.68	-55.1453
152.5	-4951.17	-55.2368
152.6	-4961.85	-55.2063
152.7	-5009.46	-55.1758
152.8	-5040.59	-55.2063
152.9	-5046.39	-55.1147
153	-5044.25	-55.1147
153.1	-5044.86	-55.1453
153.2	-5041.81	-55.1758
153.3	-5011.29	-55.2063
153.4	-4973.45	-55.1147
153.5	-4942.63	-55.0842
153.6	-4907.23	-55.1147
153.7	-4919.13	-55.1758
153.8	-4943.85	-55.2368
153.9	-4963.68	-55.1758
154	-4947.51	-55.1147
154.1	-4892.58	-55.1758
154.2	-4895.02	-55.2368
154.3	-4960.33	-55.0537
154.4	-4970.4	-55.0537
154.5	-4902.95	-55.2063
154.6	-4860.23	-55.2063
154.7	-4869.38	-55.1453
154.8	-4868.16	-55.0842
154.9	-4866.03	-55.1147
155	-4870.61	-55.1758
155.1	-4864.2	-55.2063
155.2	-4879.15	-55.1453
155.3	-4910.89	-55.1758
155.4	-4897.77	-55.2673
155.5	-4886.78	-55.1147
155.6	-4905.09	-55.0537
155.7	-4902.34	-55.1147
155.8	-4899.29	-55.0842
155.9	-4891.66	-55.1758
156	-4891.05	-55.2063
156.1	-4896.24	-55.2368
156.2	-4872.44	-55.1147
156.3	-4862.37	-55.0842
156.4	-4858.4	-55.0842
156.5	-4836.73	-55.0842
156.6	-4820.56	-55.1147
156.7	-4795.84	-55.2368
156.8	-4778.44	-55.2368
156.9	-4786.99	-55.2368
157	-4808.04	-55.2063
157.1	-4827.58	-55.2673
157.2	-4838.26	-55.2063
157.3	-4834.29	-55.1147
157.4	-4841	-55.1453
157.5	-4853.21	-55.0842
157.6	-4874.88	-55.0537
157.7	-4879.76	-55.0842
157.8	-4887.7	-55.0537
157.9	-4872.13	-55.0537
158	-4818.12	-55.0842
158.1	-4799.19	-55.0842
158.2	-4837.34	-55.0537
158.3	-4837.95	-55.1453
158.4	-4826.35	-55.1147
158.5	-4809.57	-55.1758
158.6	-4815.98	-55.1758
158.7	-4840.39	-55.1453
158.8	-4866.64	-55.1147
158.9	-4880.68	-55.1453
159	-4901.12	-55.1453
159.1	-4900.21	-55.2368
159.2	-4868.16	-55.2368
159.3	-4850.16	-55.1758
159.4	-4847.72	-55.1758
159.5	-4866.03	-55.1147
159.6	-4871.83	-55.0537
159.7	-4846.19	-55.1758
159.8	-4827.88	-55.1758
159.9	-4791.87	-55.0537
160	-4760.44	-55.2063
160.1	-4763.49	-60.1196
160.2	-4774.78	-60.0586
160.3	-4919.13	-60.2417
160.4	-5122.38	-60.0891
160.5	-5216.06	-60.1807
160.6	-5247.5	-60.2417
160.7	-5258.79	-60.0891
160.8	-5269.47	-60.1196
160.9	-5289.61	-60.2417
161	-5278.32	-60.0586
161.1	-5269.17	-60.0586
161.2	-5284.12	-60.2722
161.3	-5305.79	-60.1196
161.4	-5270.69	-60.1196
161.5	-5254.21	-60.2722
161.6	-5255.74	-60.0891
161.7	-5256.65	-60.2112
161.8	-5244.14	-60.0586
161.9	-5220.34	-60.1196
162	-5237.12	-60.2112
162.1	-5256.65	-60.1196
162.2	-5286.56	-60.1196
162.3	-5314.64	-60.2112
162.4	-5343.93	-60.2417
162.5	-5393.68	-60.0891
162.6	-5404.97	-60.1807
162.7	-5371.4	-60.1807
162.8	-5328.67	-60.0586
162.9	-5285.95	-60.2417
163	-5266.42	-60.0586
163.1	-5254.21	-60.0891
163.2	-5203.25	-60.2112
163.3	-5201.72	-60.2722
163.4	-5236.21	-60.0891
163.5	-5243.53	-60.0281
163.6	-5248.41	-60.2112
163.7	-5288.39	-60.1501
163.8	-5320.13	-60.0891
163.9	-5315.55	-60.1501
164	-5269.78	-60.2417
164.1	-5253.6	-60.0586
164.2	-5271.3	-60.1196
164.3	-5266.11	-60.1196
164.4	-5294.49	-60.1807
164.5	-5354.31	-60.1196
164.6	-5361.02	-60.0586
164.7	-5329.28	-60.1196
164.8	-5335.08	-60.2417
164.9	-5353.09	-60.1807
165	-5359.19	-60.0891
165.1	-5337.52	-60.0586
165.2	-5296.63	-60.0281
165.3	-5232.85	-60.1807
165.4	-5220.34	-60.2417
165.5	-5235.6	-60.1807
165.6	-5205.99	-60.0891
165.7	-5197.75	-60.1196
165.8	-5207.82	-60.2417
165.9	-5211.79	-60.1807
166	-5213.62	-60.0891
166.1	-5224	-60.0891
166.2	-5273.44	-60.0586
166.3	-5260.62	-60.0891
166.4	-5198.97	-60.0281
166.5	-5184.02	-60.0891
166.6	-5197.75	-60.1501
166.7	-5235.29	-60.2112
166.8	-5272.22	-60.2112
166.9	-5295.1	-60.0281
167	-5296.94	-60.2112
167.1	-5262.76	-60.1196
167.2	-5222.47	-60.1196
167.3	-5208.44	-60.2417
167.4	-5209.05	-60.1501
167.5	-5195.62	-60.1196
167.6	-5171.2	-60.2112
167.7	-5182.5	-60.0891
167.8	-5221.25	-60.0281
167.9	-5239.87	-60.2112
168	-5233.76	-60.0281
168.1	-5242.61	-60.2417
168.2	-5215.15	-60.1807
168.3	-5184.02	-60.0891
168.4	-5202.33	-60.1501
168.5	-5205.69	-60.1807
168.6	-5174.87	-60.0891
168.7	-5167.85	-60.0891
168.8	-5202.94	-60.1196
168.9	-5226.75	-60.1196
169	-5220.64	-60.1807
169.1	-5198.97	-60.1807
169.2	-5210.27	-60.0891
169.3	-5237.12	-60.2112
169.4	-5206.6	-60.0891
169.5	-5171.81	-60.2112
169.6	-5206.91	-60.0586
169.7	-5246.89	-60.2417
169.8	-5248.41	-60.1196
169.9	-5242	-60.1501
170	-5279.24	-60.2112
170.1	-5303.34	-60.0891
170.2	-5301.82	-65.155
170.3	-5279.85	-65.033
170.4	-5335.39	-65.1245
170.5	-5537.41	-65.094
170.6	-5677.19	-65.0635
170.7	-5754.09	-65.1245
170.8	-5747.99	-65.2161
170.9	-5686.95	-65.0635
171	-5693.66	-65.094
171.1	-5743.1	-65.155
171.2	-5774.54	-65.033
171.3	-5802.31	-65.1855
171.4	-5795.59	-65.1245
171.5	-5816.96	-65.155
171.6	-5833.74	-65.155
171.7	-5830.99	-65.1245
171.8	-5826.72	-65.033
171.9	-5813.29	-65.2161
172	-5772.09	-65.0024
172.1	-5743.71	-65.094
172.2	-5758.06	-65.094
172.3	-5767.52	-65.2161
172.4	-5785.83	-65.0635
172.5	-5794.07	-65.2466
172.6	-5758.06	-65.0635
172.7	-5743.71	-65.1855
172.8	-5772.71	-65.0635
172.9	-5807.5	-65.1245
173	-5831.3	-65.155
173.1	-5798.65	-65.033
173.2	-5773.62	-65.1855
173.3	-5815.12	-65.2161
173.4	-5849	-65.1245
173.5	-5855.71	-65.094
173.6	-5856.93	-65.033
173.7	-5849.3	-65.1855
173.8	-5821.53	-65.033
173.9	-5786.44	-65.155
174	-5757.45	-65.094
174.1	-5748.9	-65.094
174.2	-5780.64	-65.1855
174.3	-5812.99	-65.094
174.4	-5799.26	-65.1855
174.5	-5777.28	-65.033
174.6	-5749.82	-65.1855
174.7	-5716.86	-65.1245
174.8	-5697.63	-65.033
174.9	-5684.81	-65.155
175	-5693.36	-65.094
175.1	-5717.16	-65.155
175.2	-5684.81	-65.155
175.3	-5647.28	-65.0635
175.4	-5630.8	-65.094
175.5	-5630.8	-65.1855
175.6	-5672.3	-65.0635
175.7	-5718.38	-65.033
175.8	-5693.05	-65.1855
175.9	-5660.1	-65.2466
176	-5704.35	-65.1245
176.1	-5747.99	-65.0635
176.2	-5709.84	-65.1245
176.3	-5675.35	-65.094
176.4	-5684.51	-65.0635
176.5	-5695.8	-65.155
176.6	-5689.09	-65.1245
176.7	-5643.31	-65.0635
176.8	-5599.06	-65.2466
176.9	-5593.57	-65.094
177	-5611.27	-65.2161
177.1	-5658.87	-65.0024
177.2	-5734.86	-65.1855
177.3	-5738.22	-65.0635
177.4	-5678.71	-65.0635
177.5	-5668.64	-65.094
177.6	-5667.42	-65.0635
177.7	-5673.22	-65.1855
177.8	-5700.38	-65.094
177.9	-5680.85	-65.1245
178	-5640.26	-65.1245
178.1	-5655.21	-65.033
178.2	-5670.78	-65.094
178.3	-5633.54	-65.1855
178.4	-5590.21	-65.2161
178.5	-5588.38	-65.155
178.6	-5612.49	-65.094
178.7	-5649.11	-65.0635
178.8	-5662.84	-65.1245
178.9	-5645.75	-65.2161
179	-5637.21	-65.0024
179.1	-5626.53	-65.0635
179.2	-5606.38	-65.1245
179.3	-5604.55	-65.0635
179.4	-5618.9	-65.1855
179.5	-5613.4	-65.0635
179.6	-5591.13	-65.2466
179.7	-5588.38	-65.0635
179.8	-5615.84	-65.155
179.9	-5636.6	-65.155
180	-5641.17	-65.0635
180.1	-5636.29	-70.1294
180.2	-5632.02	-70.2209
180.3	-5718.38	-70.1904
180.4	-5934.14	-70.0989
180.5	-6094.36	-70.0989
180.6	-6154.79	-70.0073
180.7	-6186.83	-70.1599
180.8	-6185.61	-70.1294
180.9	-6168.21	-70.0684
181	-6141.97	-70.1294
181.1	-6111.76	-70.1904
181.2	-6093.44	-70.0684
181.3	-6095.28	-70.2209
181.4	-6140.14	-70.0378
181.5	-6193.24	-70.0684
181.6	-6202.39	-70.1904
181.7	-6204.53	-70.0684
181.8	-6190.19	-70.0378
181.9	-6166.08	-70.1904
182	-6170.35	-70.0989
182.1	-6152.95	-70.1294
182.2	-6131.29	-70.1294
182.3	-6116.64	-70.0989
182.4	-6047.67	-70.1904
182.5	-5975.95	-70.0684
182.6	-6014.4	-70.2209
182.7	-6103.21	-70.0989
182.8	-6129.46	-70.2209
182.9	-6083.37	-70.0378
183	-6030.58	-70.0989
183.1	-6005.86	-70.0378
183.2	-5984.5	-70.0378
183.3	-5974.12	-70.1904
183.4	-6009.83	-70.0684
183.5	-6033.94	-70.1599
183.6	-6003.42	-70.1294
183.7	-5959.78	-70.0684
183.8	-5918.27	-70.1904
183.9	-5906.98	-70.0684
184	-5934.75	-70.0378
184.1	-5961	-70.1599
184.2	-5997.92	-70.0989
184.3	-6027.83	-70.1904
184.4	-5971.07	-70.1904
184.5	-5945.74	-70.0378
184.6	-6020.2	-70.0378
184.7	-6037.9	-70.1599
184.8	-6025.39	-70.1294
184.9	-6028.75	-70.0684
185	-6045.53	-70.1599
185.1	-6064.76	-70.0989
185.2	-6052.86	-70.1294
185.3	-5991.82	-70.1599
185.4	-5931.7	-70.1294
185.5	-5933.84	-70.1294
185.6	-5969.54	-70.1599
185.7	-6000.37	-70.0073
185.8	-5979	-70.0989
185.9	-5952.15	-70.1599
186	-5975.65	-70.0378
186.1	-5989.07	-70.1904
186.2	-5990.3	-70.0378
186.3	-5990.3	-70.1904
186.4	-5980.83	-70.2209
186.5	-5944.21	-70.0684
186.6	-5886.84	-70.0684
186.7	-5880.43	-70.1294
186.8	-5933.84	-70.1599
186.9	-5952.15	-70.1904
187	-5954.9	-70.1599
187.1	-5943.91	-70.0073
187.2	-5898.44	-70.0684
187.3	-5852.97	-70.1599
187.4	-5845.34	-70.0073
187.5	-5862.12	-70.2209
187.6	-5929.26	-70.0378
187.7	-5950.62	-70.1904
187.8	-5939.94	-70.1599
187.9	-5981.75	-70.0684
188	-6003.42	-70.0989
188.1	-5951.54	-70.2515
188.2	-5940.25	-70.1599
188.3	-5953.06	-70.0073
188.4	-5965.58	-70.2209
188.5	-5992.43	-70.0378
188.6	-5972.29	-70.0989
188.7	-5912.48	-70.1294
188.8	-5871.89	-70.0378
188.9	-5840.15	-70.1904
189	-5855.71	-70.0378
189.1	-5890.5	-70.0684
189.2	-5898.13	-70.1599
189.3	-5892.94	-70.0684
189.4	-5924.68	-70.1599
189.5	-5961	-70.2209
189.6	-5973.82	-70.0684
189.7	-5965.88	-70.1294
189.8	-5944.82	-70.1904
189.9	-5942.38	-70.0989
190	-5927.73	-70.0684
190.1	-5930.18	-70.0684
190.2	-5923.16	-70.1599
190.3	-5897.83	-75.1648
190.4	-5957.34	-74.9817
190.5	-6224.98	-74.9817
190.6	-6440.73	-75.1038
190.7	-6462.1	-75.1953
190.8	-6424.87	-75.0427
190.9	-6418.46	-75.0122
191	-6380.62	-75.0122
191.1	-6359.25	-75.0427
191.2	-6352.84	-75.1038
191.3	-6350.71	-75.1343
191.4	-6399.84	-75.1953
191.5	-6410.22	-75.1038
191.6	-6340.33	-75.0732
191.7	-6282.65	-75.0732
191.8	-6312.56	-75.1953
191.9	-6318.05	-75.1953
192	-6304.63	-75.0427
192.1	-6284.48	-75.0732
192.2	-6268.62	-75.1953
192.3	-6286.62	-75.0427
192.4	-6277.77	-75.1038
192.5	-6271.67	-75.1038
192.6	-6277.47	-74.9817
192.7	-6264.34	-75.1648
192.8	-6228.03	-75.0427
192.9	-6209.72	-75.1648
193	-6232.3	-74.9817
193.1	-6260.38	-75.0427
193.2	-6283.57	-75.0427
193.3	-6280.52	-75.0427
193.4	-6263.12	-75.1343
193.5	-6274.72	-75.0122
193.6	-6299.13	-75.1953
193.7	-6306.15	-75.0122
193.8	-6286.93	-75.1038
193.9	-6292.72	-75.1648
194	-6319.27	-75.0732
194.1	-6343.99	-75.1038
194.2	-6296.69	-75.1038
194.3	-6220.7	-75.0732
194.4	-6216.13	-75.1648
194.5	-6226.5	-75.1648
194.6	-6216.43	-75.0427
194.7	-6225.28	-75.1343
194.8	-6229.55	-75.2258
194.9	-6203.31	-75.1953
195	-6171.88	-75.0732
195.1	-6198.43	-75.0122
195.2	-6232.6	-75.0122
195.3	-6199.65	-75.0732
195.4	-6175.23	-75.1648
195.5	-6189.27	-75.1038
195.6	-6196.29	-75.0427
195.7	-6156.31	-75.0427
195.8	-6099.55	-75.1953
195.9	-6110.84	-75.0732
196	-6131.9	-75.0427
196.1	-6122.44	-75.0122
196.2	-6126.71	-75.1038
196.3	-6140.44	-75.1038
196.4	-6166.38	-74.9817
196.5	-6171.26	-75.0732
196.6	-6181.03	-75.1038
196.7	-6184.39	-74.9817
196.8	-6142.27	-75.1038
196.9	-6110.84	-75.1648
197	-6062.93	-75.0427
197.1	-6061.4	-75.0122
197.2	-6096.19	-75.1343
197.3	-6124.57	-75.0427
197.4	-6149.29	-74.9817
197.5	-6153.56	-75.1648
197.6	-6130.98	-74.9817
197.7	-6089.78	-75.1038
197.8	-6062.93	-75.1038
197.9	-6069.64	-75.0427
198	-6087.65	-75.1953
198.1	-6096.19	-75.0122
198.2	-6092.83	-75.1038
198.3	-6066.59	-75.1953
198.4	-6060.79	-75.0122
198.5	-6044.92	-75.1648
198.6	-5991.21	-75.0732
198.7	-6004.03	-75.1343
198.8	-6041.26	-75.0732
198.9	-6022.34	-75.1038
199	-6028.14	-75.1343
199.1	-6044.31	-75.1038
199.2	-6029.66	-75.0427
199.3	-6051.64	-75.1648
199.4	-6050.11	-75.1343
199.5	-6038.82	-75.0122
199.6	-6035.46	-75.1038
199.7	-6019.59	-75.2258
199.8	-5981.75	-75.1953
199.9	-5947.88	-75.0427
200	-5940.25	-75.0732
200.1	-5908.81	-75.1953
200.2	-5879.52	-80.0171
200.3	-5926.21	-80.0781
200.4	-6147.77	-80.1086
200.5	-6326.29	-80.0171
200.6	-6358.95	-80.1697
200.7	-6358.64	-80.0476
200.8	-6393.74	-80.0781
200.9	-6418.76	-80.0781
201	-6373.29	-80.0476
201.1	-6303.1	-80.0781
201.2	-6273.19	-80.0171
201.3	-6307.98	-80.0781
201.4	-6330.57	-80.1086
201.5	-6314.39	-80.0171
201.6	-6287.54	-80.1392
201.7	-6256.71	-80.0476
201.8	-6252.44	-80.0476
201.9	-6285.4	-80.2002
202	-6286.01	-80.0476
202.1	-6249.39	-80.1086
202.2	-6215.82	-80.1392
202.3	-6185	-80.0781
202.4	-6173.1	-80.0781
202.5	-6150.51	-80.2002
202.6	-6130.98	-79.9866
202.7	-6143.8	-80.1697
202.8	-6175.54	-80.1697
202.9	-6221.92	-80.0171
203	-6243.9	-80.2002
203.1	-6256.1	-80.0476
203.2	-6254.27	-79.9866
203.3	-6235.66	-80.0476
203.4	-6225.89	-80.1392
203.5	-6224.37	-80.0171
203.6	-6240.84	-80.1392
203.7	-6262.51	-80.1086
203.8	-6270.75	-80.0476
203.9	-6263.43	-80.1697
204	-6266.78	-80.1086
204.1	-6288.45	-80.0476
204.2	-6294.86	-80.1697
204.3	-6239.62	-80.1697
204.4	-6191.41	-80.0476
204.5	-6175.23	-80.1392
204.6	-6168.82	-80.1697
204.7	-6135.56	-80.0781
204.8	-6079.1	-80.2002
204.9	-6036.99	-79.9866
205	-6040.04	-80.1392
205.1	-6054.69	-79.9866
205.2	-6065.98	-80.1392
205.3	-6077.88	-80.1392
205.4	-6075.44	-79.9866
205.5	-6095.58	-80.1697
205.6	-6146.85	-80.1086
205.7	-6174.62	-79.9866
205.8	-6175.84	-80.1392
205.9	-6165.47	-80.1086
206	-6105.04	-80.0476
206.1	-6033.94	-80.1697
206.2	-6008.3	-80.1086
206.3	-6003.11	-80.0781
206.4	-6045.53	-80.2307
206.5	-6108.7	-80.0781
206.6	-6084.9	-80.0781
206.7	-6032.41	-80.2002
206.8	-6038.82	-80.0781
206.9	-6045.23	-80.2002
207	-6033.02	-80.0171
207.1	-6043.09	-80.1697
207.2	-6039.43	-80.0171
207.3	-6031.8	-80.1392
207.4	-6005.25	-80.0781
207.5	-5989.99	-80.0781
207.6	-5988.16	-80.0476
207.7	-5993.35	-80.1086
207.8	-6004.94	-80.0476
207.9	-6019.59	-80.1392
208	-6047.97	-79.9866
208.1	-6068.73	-80.2307
208.2	-6070.86	-80.0171
208.3	-6042.79	-80.1697
208.4	-6034.24	-80.0171
208.5	-6049.8	-80.1697
208.6	-6020.81	-80.1392
208.7	-6004.03	-80.0476
208.8	-6020.2	-80.2002
208.9	-6004.33	-80.0476
209	-6010.74	-80.2307
209.1	-6060.79	-80.0781
209.2	-6054.38	-80.0476
209.3	-6015.63	-80.1697
209.4	-6008.91	-80.0781
209.5	-5999.45	-80.0171
209.6	-5961.3	-80.1697
209.7	-5942.08	-80.0781
