ATF	1.0
7	3     
"AcquisitionMode=Gap Free"
"Comment="
"YTop=10000,1000"
"YBottom=-10000,-1000"
"SweepStartTimesMS=0.000"
"SignalsExported=Im_Scaled,10_mv"
"Signals="	"Im_Scaled"	"10_mv"
"Time (s)"	"Trace #1 (pA)"	"Trace #1 (mV)"
0	1456.3	19.7144
0.1	1456.91	19.7144
0.2	1458.13	19.6533
0.3	1460.27	19.7754
0.4	1461.18	19.7144
0.5	1462.71	19.8364
0.6	1464.54	19.6533
0.7	1464.84	19.8059
0.8	1464.23	19.7449
0.9	1461.49	19.6228
1	1456.91	19.7449
1.1	1452.64	19.7144
1.2	1452.64	19.6838
1.3	1455.69	19.8364
1.4	1457.21	19.6838
1.5	1453.55	19.6838
1.6	1452.64	19.7754
1.7	1455.08	19.7754
1.8	1456.3	19.6533
1.9	1455.99	19.7754
2	1457.21	19.7754
2.1	1455.38	19.7449
2.2	1455.69	19.7754
2.3	1459.05	19.5923
2.4	1455.38	19.7754
2.5	1452.33	19.6533
2.6	1455.99	19.7754
2.7	1460.57	19.7144
2.8	1461.49	19.6228
2.9	1462.1	19.7449
3	1462.4	19.6228
3.1	1457.21	19.7754
3.2	1458.74	19.6228
3.3	1464.54	19.8059
3.4	1465.45	19.7449
3.5	1466.67	19.7144
3.6	1469.12	19.7754
3.7	1471.25	19.6228
3.8	1474	19.8059
3.9	1475.83	19.6228
4	1473.08	19.8364
4.1	1463.62	19.6228
4.2	1459.96	19.8059
4.3	1462.4	19.6228
4.4	1466.06	19.7754
4.5	1466.06	19.5923
4.6	1459.96	19.8059
4.7	1456.91	19.6533
4.8	1455.69	19.8059
4.9	1456.91	19.6533
5	1459.66	19.7449
5.1	1459.66	19.7754
5.2	1466.67	19.6228
5.3	1468.51	19.7449
5.4	1467.29	19.7449
5.5	1464.23	19.7144
5.6	1466.37	19.7754
5.7	1466.98	19.6228
5.8	1465.15	19.8059
5.9	1466.37	19.6533
6	1464.84	19.7144
6.1	1462.1	19.6838
6.2	1463.32	19.6533
6.3	1466.06	19.7754
6.4	1472.78	19.8059
6.5	1479.19	19.7144
6.6	1477.66	19.6533
6.7	1472.47	19.6838
6.8	1467.9	19.7754
6.9	1465.76	19.7449
7	1467.9	19.6838
7.1	1469.42	19.7144
7.2	1470.95	19.8059
7.3	1466.67	19.6533
7.4	1465.15	19.8364
7.5	1469.73	19.6228
7.6	1463.62	19.7449
7.7	1454.77	19.6228
7.8	1457.21	19.7449
7.9	1466.06	19.7144
8	1464.84	19.6838
8.1	1459.96	19.7754
8.2	1460.57	19.6533
8.3	1460.57	19.7449
8.4	1458.44	19.7754
8.5	1459.66	19.5923
8.6	1464.23	19.7754
8.7	1473.08	19.7754
8.8	1471.56	19.6228
8.9	1465.15	19.8059
9	1458.13	19.7144
9.1	1460.57	19.6838
9.2	1467.9	19.7449
9.3	1471.56	19.5923
9.4	1475.83	19.8364
9.5	1477.36	19.6533
9.6	1470.95	19.8059
9.7	1466.06	19.6838
9.8	1466.98	19.8059
9.9	1470.64	19.6228
10	1476.44	19.7754
10.1	1476.75	14.6179
10.2	1453.55	14.7705
10.3	1241.15	14.6179
10.4	966.797	14.801
10.5	910.339	14.6484
10.6	913.696	14.7095
10.7	910.95	14.801
10.8	911.255	14.7095
10.9	915.833	14.6179
11	923.462	14.7095
11.1	926.819	14.801
11.2	928.345	14.6179
11.3	924.683	14.7705
11.4	921.936	14.801
11.5	919.495	14.6179
11.6	920.41	14.74
11.7	921.936	14.7705
11.8	922.241	14.6179
11.9	923.767	14.679
12	925.293	14.7705
12.1	924.072	14.7705
12.2	924.683	14.6484
12.3	926.208	14.7095
12.4	927.429	14.7705
12.5	927.429	14.801
12.6	927.124	14.7095
12.7	928.65	14.6484
12.8	929.26	14.679
12.9	926.514	14.74
13	927.124	14.8315
13.1	926.514	14.801
13.2	923.462	14.7705
13.3	922.546	14.7705
13.4	922.852	14.74
13.5	926.514	14.74
13.6	929.565	14.6179
13.7	927.734	14.7095
13.8	925.598	14.8315
13.9	924.072	14.801
14	921.326	14.7095
14.1	922.852	14.6179
14.2	924.377	14.679
14.3	923.767	14.7705
14.4	922.241	14.7705
14.5	924.683	14.6179
14.6	927.429	14.7705
14.7	930.176	14.7705
14.8	928.04	14.6484
14.9	924.683	14.7705
15	926.514	14.679
15.1	928.345	14.5874
15.2	925.598	14.679
15.3	923.767	14.801
15.4	922.852	14.8315
15.5	923.157	14.6484
15.6	925.903	14.6179
15.7	926.208	14.74
15.8	924.072	14.8315
15.9	923.462	14.7705
16	924.683	14.8315
16.1	925.903	14.8315
16.2	924.683	14.74
16.3	922.546	14.74
16.4	922.241	14.74
16.5	922.546	14.74
16.6	920.715	14.6484
16.7	920.105	14.6484
16.8	921.021	14.6179
16.9	921.326	14.5874
17	920.715	14.7095
17.1	920.715	14.801
17.2	920.41	14.679
17.3	918.579	14.7095
17.4	919.495	14.801
17.5	924.072	14.6179
17.6	926.514	14.801
17.7	925.903	14.679
17.8	926.819	14.6179
17.9	924.988	14.801
18	924.683	14.7705
18.1	924.072	14.6484
18.2	924.683	14.801
18.3	924.683	14.74
18.4	924.377	14.5874
18.5	927.734	14.74
18.6	927.429	14.7705
18.7	924.988	14.74
18.8	922.241	14.679
18.9	921.326	14.5874
19	922.546	14.5874
19.1	924.072	14.6179
19.2	923.157	14.679
19.3	920.105	14.74
19.4	919.189	14.7705
19.5	920.715	14.74
19.6	920.41	14.6484
19.7	919.8	14.6179
19.8	916.748	14.6179
19.9	917.969	14.6484
20	922.852	14.6484
20.1	924.683	14.74
20.2	924.072	14.801
20.3	918.274	9.79614
20.4	787.659	9.76563
20.5	478.21	9.73511
20.6	350.037	9.73511
20.7	350.647	9.61304
20.8	350.647	9.67407
20.9	350.342	9.82666
21	350.647	9.76563
21.1	350.952	9.73511
21.2	350.342	9.64355
21.3	349.121	9.64355
21.4	349.731	9.64355
21.5	350.037	9.67407
21.6	350.647	9.70459
21.7	350.647	9.76563
21.8	349.731	9.76563
21.9	350.647	9.79614
22	350.647	9.79614
22.1	350.647	9.76563
22.2	350.342	9.79614
22.3	350.342	9.82666
22.4	348.816	9.73511
22.5	347.595	9.67407
22.6	348.816	9.64355
22.7	349.426	9.67407
22.8	350.037	9.64355
22.9	350.342	9.70459
23	350.037	9.76563
23.1	349.121	9.73511
23.2	348.816	9.73511
23.3	349.121	9.76563
23.4	349.121	9.82666
23.5	349.121	9.82666
23.6	349.426	9.79614
23.7	349.121	9.79614
23.8	349.426	9.79614
23.9	349.731	9.70459
24	349.121	9.73511
24.1	348.816	9.67407
24.2	348.816	9.61304
24.3	349.121	9.552
24.4	348.816	9.64355
24.5	348.816	9.67407
24.6	348.511	9.67407
24.7	347.29	9.73511
24.8	347.9	9.73511
24.9	348.206	9.73511
25	349.121	9.73511
25.1	349.731	9.64355
25.2	349.731	9.61304
25.3	349.731	9.76563
25.4	349.426	9.79614
25.5	348.816	9.73511
25.6	349.121	9.73511
25.7	349.731	9.64355
25.8	350.037	9.82666
25.9	350.037	9.79614
26	350.647	9.61304
26.1	350.342	9.67407
26.2	350.952	9.79614
26.3	352.478	9.73511
26.4	351.257	9.61304
26.5	350.342	9.73511
26.6	350.342	9.82666
26.7	349.731	9.70459
26.8	348.511	9.64355
26.9	347.9	9.70459
27	349.121	9.79614
27.1	350.342	9.73511
27.2	348.511	9.61304
27.3	347.29	9.76563
27.4	348.511	9.76563
27.5	350.037	9.64355
27.6	350.647	9.79614
27.7	350.952	9.82666
27.8	351.868	9.67407
27.9	351.257	9.61304
28	350.647	9.79614
28.1	351.257	9.79614
28.2	350.037	9.79614
28.3	348.816	9.70459
28.4	347.595	9.76563
28.5	347.9	9.70459
28.6	347.9	9.79614
28.7	348.511	9.76563
28.8	348.816	9.67407
28.9	349.121	9.76563
29	348.816	9.61304
29.1	349.426	9.73511
29.2	349.731	9.82666
29.3	350.647	9.61304
29.4	350.342	9.79614
29.5	350.342	9.76563
29.6	351.563	9.58252
29.7	350.647	9.76563
29.8	350.037	9.76563
29.9	349.731	9.64355
30	349.731	9.79614
30.1	349.731	9.82666
30.2	350.647	9.70459
30.3	350.342	4.63867
30.4	345.459	4.73022
30.5	198.059	4.82178
30.6	-108.032	4.79126
30.7	-217.896	4.66919
30.8	-215.149	4.76074
30.9	-216.37	4.82178
31	-216.675	4.76074
31.1	-216.37	4.66919
31.2	-216.37	4.76074
31.3	-216.37	4.85229
31.4	-216.675	4.66919
31.5	-216.98	4.76074
31.6	-216.675	4.73022
31.7	-216.064	4.79126
31.8	-216.37	4.76074
31.9	-216.37	4.69971
32	-216.675	4.82178
32.1	-216.98	4.60815
32.2	-218.201	4.79126
32.3	-217.896	4.66919
32.4	-218.506	4.82178
32.5	-217.285	4.79126
32.6	-216.98	4.66919
32.7	-217.59	4.76074
32.8	-218.201	4.79126
32.9	-219.116	4.73022
33	-217.896	4.66919
33.1	-218.201	4.82178
33.2	-217.896	4.82178
33.3	-217.285	4.69971
33.4	-217.285	4.79126
33.5	-217.896	4.69971
33.6	-218.506	4.73022
33.7	-218.811	4.82178
33.8	-217.896	4.76074
33.9	-217.896	4.73022
34	-218.811	4.79126
34.1	-218.506	4.63867
34.2	-217.896	4.76074
34.3	-217.59	4.82178
34.4	-218.201	4.79126
34.5	-217.285	4.69971
34.6	-217.896	4.76074
34.7	-217.896	4.73022
34.8	-217.896	4.69971
34.9	-218.506	4.79126
35	-219.116	4.69971
35.1	-220.032	4.76074
35.2	-219.421	4.82178
35.3	-219.116	4.66919
35.4	-218.811	4.76074
35.5	-218.811	4.79126
35.6	-218.811	4.82178
35.7	-218.506	4.79126
35.8	-218.506	4.79126
35.9	-217.285	4.73022
36	-217.285	4.66919
36.1	-218.201	4.60815
36.2	-218.811	4.66919
36.3	-218.506	4.82178
36.4	-218.506	4.82178
36.5	-218.811	4.66919
36.6	-219.421	4.69971
36.7	-219.727	4.82178
36.8	-219.116	4.76074
36.9	-217.285	4.82178
37	-217.285	4.76074
37.1	-216.98	4.73022
37.2	-217.59	4.73022
37.3	-218.811	4.76074
37.4	-218.811	4.73022
37.5	-218.201	4.60815
37.6	-217.896	4.69971
37.7	-218.201	4.82178
37.8	-218.811	4.82178
37.9	-219.116	4.82178
38	-218.811	4.66919
38.1	-218.811	4.85229
38.2	-218.811	4.76074
38.3	-219.116	4.60815
38.4	-219.421	4.79126
38.5	-220.032	4.76074
38.6	-220.642	4.66919
38.7	-220.337	4.85229
38.8	-220.032	4.66919
38.9	-220.642	4.79126
39	-220.032	4.69971
39.1	-219.421	4.82178
39.2	-219.421	4.63867
39.3	-219.727	4.76074
39.4	-219.116	4.79126
39.5	-218.811	4.66919
39.6	-219.727	4.73022
39.7	-220.337	4.85229
39.8	-219.727	4.76074
39.9	-220.337	4.60815
40	-220.032	4.76074
40.1	-219.116	4.76074
40.2	-219.421	-0.274658
40.3	-300.293	-0.183105
40.4	-600.586	-0.244141
40.5	-774.841	-0.274658
40.6	-779.114	-0.183105
40.7	-778.198	-0.366211
40.8	-779.419	-0.274658
40.9	-778.809	-0.213623
41	-779.114	-0.335693
41.1	-777.283	-0.183105
41.2	-774.841	-0.244141
41.3	-773.01	-0.274658
41.4	-774.231	-0.183105
41.5	-775.452	-0.335693
41.6	-776.672	-0.274658
41.7	-776.978	-0.244141
41.8	-776.367	-0.244141
41.9	-775.452	-0.335693
42	-774.231	-0.183105
42.1	-776.367	-0.213623
42.2	-776.978	-0.335693
42.3	-777.893	-0.183105
42.4	-775.757	-0.152588
42.5	-775.146	-0.366211
42.6	-776.978	-0.244141
42.7	-779.724	-0.213623
42.8	-780.334	-0.366211
42.9	-778.503	-0.183105
43	-775.757	-0.213623
43.1	-775.146	-0.335693
43.2	-777.893	-0.183105
43.3	-776.062	-0.183105
43.4	-773.621	-0.213623
43.5	-771.179	-0.305176
43.6	-770.874	-0.335693
43.7	-771.179	-0.213623
43.8	-772.095	-0.183105
43.9	-771.484	-0.305176
44	-772.4	-0.305176
44.1	-775.757	-0.274658
44.2	-776.672	-0.183105
44.3	-775.146	-0.152588
44.4	-775.757	-0.152588
44.5	-778.809	-0.305176
44.6	-780.334	-0.305176
44.7	-779.419	-0.244141
44.8	-776.672	-0.396729
44.9	-773.621	-0.244141
45	-770.264	-0.152588
45.1	-768.738	-0.152588
45.2	-770.874	-0.213623
45.3	-773.926	-0.244141
45.4	-775.757	-0.305176
45.5	-777.893	-0.305176
45.6	-779.114	-0.213623
45.7	-778.503	-0.244141
45.8	-775.146	-0.366211
45.9	-774.536	-0.274658
46	-774.536	-0.213623
46.1	-773.926	-0.213623
46.2	-775.146	-0.274658
46.3	-776.367	-0.305176
46.4	-776.062	-0.183105
46.5	-777.283	-0.183105
46.6	-778.809	-0.152588
46.7	-778.503	-0.305176
46.8	-777.893	-0.366211
46.9	-776.367	-0.274658
47	-777.283	-0.244141
47.1	-780.029	-0.183105
47.2	-780.029	-0.244141
47.3	-776.978	-0.366211
47.4	-774.231	-0.305176
47.5	-769.958	-0.152588
47.6	-771.79	-0.12207
47.7	-775.146	-0.183105
47.8	-773.926	-0.213623
47.9	-772.4	-0.396729
48	-774.536	-0.366211
48.1	-778.503	-0.244141
48.2	-779.114	-0.305176
48.3	-777.588	-0.213623
48.4	-778.809	-0.152588
48.5	-779.724	-0.183105
48.6	-779.724	-0.213623
48.7	-779.419	-0.274658
48.8	-774.841	-0.305176
48.9	-774.841	-0.366211
49	-776.672	-0.335693
49.1	-774.841	-0.213623
49.2	-773.621	-0.183105
49.3	-776.367	-0.183105
49.4	-778.503	-0.152588
49.5	-779.114	-0.213623
49.6	-778.809	-0.183105
49.7	-778.809	-0.152588
49.8	-776.672	-0.152588
49.9	-771.79	-0.274658
50	-772.4	-0.305176
50.1	-775.757	-0.396729
50.2	-775.146	-0.335693
50.3	-772.095	-5.27954
50.4	-789.185	-5.18799
50.5	-989.38	-5.12695
50.6	-1253.66	-5.18799
50.7	-1310.73	-5.18799
50.8	-1300.96	-5.21851
50.9	-1303.41	-5.18799
51	-1307.07	-5.18799
51.1	-1309.81	-5.15747
51.2	-1313.48	-5.15747
51.3	-1310.42	-5.18799
51.4	-1307.98	-5.18799
51.5	-1313.78	-5.31006
51.6	-1316.53	-5.27954
51.7	-1310.42	-5.15747
51.8	-1308.29	-5.15747
51.9	-1313.48	-5.27954
52	-1318.05	-5.37109
52.1	-1317.44	-5.27954
52.2	-1311.65	-5.18799
52.3	-1307.98	-5.12695
52.4	-1307.07	-5.18799
52.5	-1310.42	-5.27954
52.6	-1309.51	-5.27954
52.7	-1308.9	-5.37109
52.8	-1310.12	-5.34058
52.9	-1311.65	-5.31006
53	-1313.48	-5.27954
53.1	-1316.53	-5.18799
53.2	-1319.58	-5.18799
53.3	-1318.66	-5.09644
53.4	-1319.27	-5.15747
53.5	-1321.72	-5.24902
53.6	-1318.66	-5.27954
53.7	-1315.31	-5.34058
53.8	-1310.73	-5.31006
53.9	-1303.41	-5.31006
54	-1304.32	-5.27954
54.1	-1308.29	-5.27954
54.2	-1308.59	-5.24902
54.3	-1310.12	-5.21851
54.4	-1308.59	-5.27954
54.5	-1304.32	-5.31006
54.6	-1301.57	-5.27954
54.7	-1304.32	-5.15747
54.8	-1305.54	-5.12695
54.9	-1310.42	-5.18799
55	-1310.73	-5.24902
55.1	-1307.68	-5.34058
55.2	-1304.32	-5.27954
55.3	-1303.1	-5.24902
55.4	-1303.41	-5.18799
55.5	-1303.71	-5.12695
55.6	-1301.88	-5.21851
55.7	-1304.02	-5.24902
55.8	-1303.1	-5.27954
55.9	-1296.39	-5.27954
56	-1295.17	-5.15747
56.1	-1294.25	-5.18799
56.2	-1297.91	-5.15747
56.3	-1303.41	-5.15747
56.4	-1305.24	-5.21851
56.5	-1304.93	-5.24902
56.6	-1304.93	-5.27954
56.7	-1305.85	-5.18799
56.8	-1305.85	-5.15747
56.9	-1308.9	-5.18799
57	-1306.46	-5.18799
57.1	-1302.19	-5.15747
57.2	-1306.15	-5.18799
57.3	-1307.37	-5.18799
57.4	-1306.46	-5.18799
57.5	-1310.73	-5.24902
57.6	-1308.9	-5.31006
57.7	-1302.49	-5.31006
57.8	-1303.41	-5.31006
57.9	-1306.15	-5.27954
58	-1306.15	-5.31006
58.1	-1301.57	-5.31006
58.2	-1293.95	-5.27954
58.3	-1297.3	-5.27954
58.4	-1306.46	-5.18799
58.5	-1303.71	-5.21851
58.6	-1297	-5.27954
58.7	-1301.57	-5.24902
58.8	-1301.88	-5.27954
58.9	-1297	-5.27954
59	-1297.91	-5.27954
59.1	-1299.13	-5.21851
59.2	-1304.63	-5.18799
59.3	-1311.65	-5.21851
59.4	-1312.87	-5.24902
59.5	-1309.2	-5.27954
59.6	-1303.41	-5.24902
59.7	-1301.88	-5.27954
59.8	-1304.63	-5.18799
59.9	-1305.54	-5.18799
60	-1305.54	-5.21851
60.1	-1310.42	-9.67407
60.2	-1315.92	-10.3149
60.3	-1438.9	-10.2539
60.4	-1719.06	-10.1013
60.5	-1822.51	-10.1013
60.6	-1820.98	-10.2539
60.7	-1823.12	-10.2844
60.8	-1817.32	-10.1013
60.9	-1811.52	-10.1929
61	-1809.39	-10.2844
61.1	-1817.32	-10.2234
61.2	-1824.04	-10.1013
61.3	-1824.34	-10.1318
61.4	-1824.34	-10.1929
61.5	-1819.46	-10.2844
61.6	-1811.83	-10.2844
61.7	-1813.35	-10.1929
61.8	-1810.61	-10.1318
61.9	-1805.11	-10.1318
62	-1805.11	-10.1318
62.1	-1813.96	-10.1318
62.2	-1825.26	-10.1013
62.3	-1822.51	-10.1318
62.4	-1819.46	-10.1318
62.5	-1821.9	-10.1624
62.6	-1820.98	-10.2234
62.7	-1824.04	-10.2844
62.8	-1819.76	-10.1929
62.9	-1809.08	-10.1013
63	-1805.42	-10.1013
63.1	-1804.5	-10.1318
63.2	-1800.84	-10.2234
63.3	-1801.45	-10.3149
63.4	-1809.08	-10.2539
63.5	-1813.96	-10.1624
63.6	-1813.05	-10.1929
63.7	-1815.49	-10.1318
63.8	-1820.68	-10.1013
63.9	-1825.56	-10.1013
64	-1824.04	-10.1929
64.1	-1824.95	-10.2539
64.2	-1826.48	-10.3455
64.3	-1823.12	-10.3149
64.4	-1811.83	-10.2844
64.5	-1805.73	-10.2234
64.6	-1807.25	-10.1929
64.7	-1810.61	-10.1624
64.8	-1813.66	-10.1624
64.9	-1811.22	-10.1929
65	-1808.17	-10.2234
65.1	-1810.3	-10.2539
65.2	-1811.22	-10.2844
65.3	-1810.91	-10.1318
65.4	-1805.11	-10.0708
65.5	-1792.6	-10.1318
65.6	-1784.97	-10.2539
65.7	-1786.19	-10.1929
65.8	-1793.52	-10.1929
65.9	-1806.34	-10.1929
66	-1810.3	-10.2539
66.1	-1810.3	-10.2539
66.2	-1813.35	-10.2539
66.3	-1815.8	-10.2234
66.4	-1820.98	-10.2234
66.5	-1821.29	-10.1318
66.6	-1812.44	-10.2234
66.7	-1811.83	-10.3149
66.8	-1810.3	-10.2234
66.9	-1804.2	-10.1318
67	-1802.98	-10.1318
67.1	-1807.56	-10.0708
67.2	-1809.08	-10.1318
67.3	-1814.27	-10.1318
67.4	-1812.44	-10.1318
67.5	-1804.81	-10.1929
67.6	-1801.15	-10.1624
67.7	-1803.59	-10.2234
67.8	-1807.56	-10.2844
67.9	-1804.2	-10.2844
68	-1795.04	-10.1013
68.1	-1798.71	-10.1013
68.2	-1797.79	-10.3149
68.3	-1791.38	-10.3455
68.4	-1794.43	-10.1624
68.5	-1800.84	-10.1013
68.6	-1797.79	-10.1318
68.7	-1798.1	-10.1318
68.8	-1808.17	-10.1929
68.9	-1818.85	-10.1929
69	-1819.15	-10.2844
69.1	-1815.19	-10.1929
69.2	-1810.91	-10.1624
69.3	-1810.91	-10.1929
69.4	-1808.47	-10.2234
69.5	-1797.18	-10.2539
69.6	-1806.95	-10.3149
69.7	-1818.85	-10.2844
69.8	-1819.46	-10.1318
69.9	-1814.58	-10.1013
70	-1809.39	-10.1318
70.1	-1811.22	-15.1367
70.2	-1821.59	-15.2283
70.3	-1985.47	-15.3503
70.4	-2235.41	-15.1978
70.5	-2289.12	-15.1367
70.6	-2278.75	-15.1672
70.7	-2280.58	-15.2588
70.8	-2282.41	-15.2283
70.9	-2297.67	-15.1367
71	-2303.47	-15.1367
71.1	-2299.5	-15.2588
71.2	-2297.06	-15.1367
71.3	-2291.56	-15.1672
71.4	-2293.09	-15.3198
71.5	-2292.48	-15.1978
71.6	-2272.95	-15.1367
71.7	-2264.71	-15.1978
71.8	-2281.49	-15.2588
71.9	-2291.87	-15.1367
72	-2296.14	-15.1367
72.1	-2297.06	-15.2588
72.2	-2301.64	-15.2283
72.3	-2305.91	-15.1062
72.4	-2305.3	-15.1062
72.5	-2289.12	-15.1367
72.6	-2282.1	-15.2283
72.7	-2285.16	-15.1367
72.8	-2282.71	-15.2893
72.9	-2288.21	-15.2893
73	-2296.75	-15.2283
73.1	-2302.86	-15.1672
73.2	-2313.84	-15.2588
73.3	-2306.52	-15.2893
73.4	-2284.55	-15.1367
73.5	-2284.85	-15.2283
73.6	-2301.64	-15.1367
73.7	-2297.06	-15.1978
73.8	-2286.99	-15.1062
73.9	-2292.48	-15.2588
74	-2292.18	-15.1672
74.1	-2288.82	-15.1978
74.2	-2289.43	-15.1062
74.3	-2283.33	-15.1672
74.4	-2296.14	-15.1367
74.5	-2297.97	-15.2588
74.6	-2296.14	-15.1062
74.7	-2301.33	-15.2588
74.8	-2293.4	-15.0757
74.9	-2291.26	-15.2893
75	-2291.87	-15.1367
75.1	-2294.01	-15.2588
75.2	-2298.28	-15.1672
75.3	-2299.5	-15.3198
75.4	-2296.45	-15.2283
75.5	-2299.5	-15.2283
75.6	-2309.88	-15.2283
75.7	-2319.03	-15.1367
75.8	-2326.35	-15.2893
75.9	-2325.74	-15.0757
76	-2319.34	-15.2283
76.1	-2322.08	-15.1367
76.2	-2317.5	-15.1367
76.3	-2316.28	-15.2283
76.4	-2318.73	-15.1367
76.5	-2313.84	-15.0757
76.6	-2312.93	-15.1978
76.7	-2311.71	-15.1062
76.8	-2291.56	-15.1672
76.9	-2288.21	-15.2588
77	-2308.65	-15.1367
77.1	-2313.54	-15.2283
77.2	-2314.15	-15.1672
77.3	-2321.47	-15.2283
77.4	-2320.25	-15.1367
77.5	-2309.88	-15.3503
77.6	-2318.42	-15.1672
77.7	-2325.44	-15.2893
77.8	-2323.61	-15.1672
77.9	-2323.91	-15.1367
78	-2336.73	-15.3198
78.1	-2342.83	-15.1367
78.2	-2322.39	-15.2283
78.3	-2308.04	-15.2893
78.4	-2312.93	-15.1367
78.5	-2304.08	-15.2588
78.6	-2293.4	-15.1672
78.7	-2291.87	-15.1672
78.8	-2301.94	-15.1672
78.9	-2314.76	-15.1978
79	-2312.93	-15.1367
79.1	-2315.06	-15.1672
79.2	-2338.56	-15.1978
79.3	-2342.83	-15.1367
79.4	-2326.05	-15.2893
79.5	-2313.84	-15.1672
79.6	-2322.08	-15.1062
79.7	-2330.02	-15.2283
79.8	-2337.04	-15.1062
79.9	-2344.36	-15.2893
80	-2336.73	-15.1672
80.1	-2326.05	-15.1672
80.2	-2327.27	-20.2332
80.3	-2373.35	-20.1416
80.4	-2606.51	-20.2942
80.5	-2806.7	-20.1416
80.6	-2808.84	-20.2942
80.7	-2795.41	-20.1111
80.8	-2798.46	-20.3247
80.9	-2796.94	-20.1111
81	-2796.02	-20.2637
81.1	-2789.31	-20.1416
81.2	-2775.88	-20.2942
81.3	-2773.13	-20.0806
81.4	-2770.08	-20.2637
81.5	-2762.76	-20.1416
81.6	-2757.57	-20.1416
81.7	-2743.53	-20.2332
81.8	-2728.88	-20.1111
81.9	-2742.92	-20.2332
82	-2767.03	-20.1111
82.1	-2773.13	-20.1721
82.2	-2782.59	-20.2026
82.3	-2797.85	-20.1111
82.4	-2799.68	-20.3247
82.5	-2796.94	-20.1416
82.6	-2786.87	-20.1721
82.7	-2789.61	-20.2942
82.8	-2804.57	-20.1416
82.9	-2804.26	-20.2637
83	-2787.48	-20.2026
83.1	-2779.54	-20.1416
83.2	-2782.29	-20.3247
83.3	-2792.05	-20.2637
83.4	-2792.66	-20.1721
83.5	-2794.49	-20.2942
83.6	-2805.48	-20.2637
83.7	-2813.72	-20.1721
83.8	-2812.5	-20.1111
83.9	-2802.12	-20.1416
84	-2796.33	-20.1416
84.1	-2801.21	-20.0806
84.2	-2808.53	-20.1111
84.3	-2796.94	-20.1111
84.4	-2779.24	-20.1111
84.5	-2789	-20.1416
84.6	-2794.19	-20.1416
84.7	-2795.72	-20.2026
84.8	-2801.82	-20.2026
84.9	-2803.96	-20.2026
85	-2801.51	-20.2637
85.1	-2794.8	-20.2637
85.2	-2785.95	-20.3247
85.3	-2785.95	-20.2942
85.4	-2773.44	-20.1416
85.5	-2767.03	-20.1416
85.6	-2783.51	-20.2332
85.7	-2789.61	-20.3247
85.8	-2776.79	-20.2637
85.9	-2775.27	-20.2026
86	-2780.15	-20.1416
86.1	-2785.95	-20.0806
86.2	-2798.16	-20.1416
86.3	-2808.53	-20.1111
86.4	-2799.99	-20.2026
86.5	-2786.56	-20.2332
86.6	-2793.58	-20.2942
86.7	-2784.42	-20.1721
86.8	-2782.59	-20.1111
86.9	-2790.83	-20.1111
87	-2787.48	-20.1111
87.1	-2789.61	-20.1721
87.2	-2796.63	-20.2942
87.3	-2789	-20.2637
87.4	-2796.63	-20.2026
87.5	-2808.23	-20.1416
87.6	-2801.21	-20.1721
87.7	-2789	-20.3247
87.8	-2784.73	-20.1111
87.9	-2779.54	-20.1721
88	-2779.24	-20.2942
88.1	-2784.12	-20.1416
88.2	-2787.17	-20.1416
88.3	-2794.8	-20.2637
88.4	-2800.6	-20.1416
88.5	-2804.26	-20.1721
88.6	-2797.24	-20.2942
88.7	-2782.9	-20.1111
88.8	-2778.32	-20.1721
88.9	-2783.81	-20.2026
89	-2788.39	-20.1111
89.1	-2776.79	-20.2637
89.2	-2775.27	-20.1416
89.3	-2787.48	-20.2026
89.4	-2777.1	-20.1721
89.5	-2770.39	-20.2026
89.6	-2788.09	-20.2026
89.7	-2788.7	-20.2332
89.8	-2771.61	-20.2942
89.9	-2779.24	-20.1416
90	-2790.83	-20.2026
90.1	-2790.83	-20.2026
90.2	-2791.44	-25.1465
90.3	-2858.28	-25.238
90.4	-3109.74	-25.0854
90.5	-3249.51	-25.2075
90.6	-3251.65	-25.177
90.7	-3261.72	-25.116
90.8	-3258.97	-25.2075
90.9	-3266.6	-25.116
91	-3283.08	-25.177
91.1	-3290.71	-25.2075
91.2	-3271.18	-25.2075
91.3	-3254.09	-25.2991
91.4	-3242.19	-25.177
91.5	-3254.09	-25.2991
91.6	-3263.85	-25.177
91.7	-3224.18	-25.2991
91.8	-3213.2	-25.1465
91.9	-3239.75	-25.2991
92	-3244.93	-25.116
92.1	-3243.1	-25.2686
92.2	-3240.05	-25.116
92.3	-3242.8	-25.2075
92.4	-3241.27	-25.2991
92.5	-3239.44	-25.1465
92.6	-3237	-25.116
92.7	-3216.55	-25.2075
92.8	-3185.12	-25.116
92.9	-3159.48	-25.2686
93	-3159.79	-25.177
93.1	-3162.84	-25.1465
93.2	-3160.1	-25.2991
93.3	-3179.63	-25.1465
93.4	-3201.9	-25.1465
93.5	-3195.5	-25.3296
93.6	-3185.73	-25.177
93.7	-3183.59	-25.1465
93.8	-3188.78	-25.2686
93.9	-3200.68	-25.0854
94	-3195.19	-25.1465
94.1	-3189.09	-25.2075
94.2	-3188.78	-25.0854
94.3	-3180.54	-25.2686
94.4	-3187.87	-25.116
94.5	-3193.36	-25.2686
94.6	-3198.85	-25.116
94.7	-3209.53	-25.116
94.8	-3203.74	-25.2991
94.9	-3190.61	-25.1465
95	-3184.81	-25.2686
95.1	-3174.44	-25.2075
95.2	-3171.08	-25.1465
95.3	-3204.04	-25.2991
95.4	-3233.03	-25.116
95.5	-3233.64	-25.2075
95.6	-3224.79	-25.2075
95.7	-3220.83	-25.116
95.8	-3211.67	-25.2686
95.9	-3195.5	-25.116
96	-3191.22	-25.238
96.1	-3194.58	-25.2075
96.2	-3195.8	-25.177
96.3	-3190.61	-25.3296
96.4	-3202.21	-25.1465
96.5	-3222.05	-25.2686
96.6	-3233.95	-25.1465
96.7	-3243.1	-25.2991
96.8	-3250.12	-25.116
96.9	-3249.51	-25.238
97	-3240.97	-25.116
97.1	-3210.75	-25.238
97.2	-3196.72	-25.0854
97.3	-3201.6	-25.2686
97.4	-3207.09	-25.1465
97.5	-3221.44	-25.3296
97.6	-3237.3	-25.1465
97.7	-3225.4	-25.2991
97.8	-3202.51	-25.1465
97.9	-3191.22	-25.2075
98	-3180.85	-25.177
98.1	-3180.24	-25.177
98.2	-3201.29	-25.116
98.3	-3218.08	-25.238
98.4	-3208.62	-25.0854
98.5	-3186.65	-25.2686
98.6	-3165.28	-25.177
98.7	-3150.33	-25.3296
98.8	-3164.98	-25.177
98.9	-3170.17	-25.2991
99	-3176.57	-25.116
99.1	-3190.92	-25.177
99.2	-3192.44	-25.2075
99.3	-3174.44	-25.1465
99.4	-3160.71	-25.2686
99.5	-3156.43	-25.116
99.6	-3151.55	-25.2991
99.7	-3169.56	-25.1465
99.8	-3194.27	-25.2686
99.9	-3198.24	-25.2991
100	-3190.61	-25.116
100.1	-3181.76	-25.2075
100.2	-3188.48	-30.2429
100.3	-3229.68	-30.0598
100.4	-3410.03	-30.2124
100.5	-3571.78	-30.1208
100.6	-3607.79	-30.1208
100.7	-3616.64	-30.2124
100.8	-3618.77	-30.2124
100.9	-3601.99	-30.1819
101	-3566.59	-30.1208
101.1	-3540.34	-30.2429
101.2	-3536.38	-30.1208
101.3	-3545.23	-30.0903
101.4	-3538.51	-30.2124
101.5	-3535.77	-30.0903
101.6	-3538.51	-30.1208
101.7	-3538.21	-30.2734
101.8	-3523.25	-30.1819
101.9	-3488.16	-30.1208
102	-3466.8	-30.2124
102.1	-3461.91	-30.2124
102.2	-3457.64	-30.0903
102.3	-3455.51	-30.0903
102.4	-3459.78	-30.2734
102.5	-3462.22	-30.0598
102.6	-3442.38	-30.2124
102.7	-3421.63	-30.2124
102.8	-3428.96	-30.0598
102.9	-3451.23	-30.2734
103	-3450.32	-30.1819
103.1	-3460.39	-30.1208
103.2	-3443.6	-30.2429
103.3	-3416.44	-30.0903
103.4	-3402.4	-30.0598
103.5	-3391.11	-30.2124
103.6	-3415.83	-30.0598
103.7	-3442.99	-30.1208
103.8	-3436.28	-30.2429
103.9	-3422.24	-30.1208
104	-3416.75	-30.2734
104.1	-3418.88	-30.1208
104.2	-3424.07	-30.1514
104.3	-3420.72	-30.1514
104.4	-3416.75	-30.0903
104.5	-3429.26	-30.1514
104.6	-3437.19	-30.0903
104.7	-3435.67	-30.2734
104.8	-3435.97	-30.1208
104.9	-3424.38	-30.1819
105	-3429.87	-30.2734
105.1	-3433.84	-30.0903
105.2	-3427.12	-30.2734
105.3	-3401.49	-30.0903
105.4	-3393.86	-30.1819
105.5	-3422.55	-30.1514
105.6	-3461.91	-30.1208
105.7	-3467.41	-30.1514
105.8	-3425.9	-30.304
105.9	-3383.18	-30.1208
106	-3377.99	-30.1208
106.1	-3397.22	-30.2124
106.2	-3414.31	-30.0598
106.3	-3440.25	-30.2429
106.4	-3460.39	-30.0903
106.5	-3445.43	-30.2429
106.6	-3429.87	-30.1514
106.7	-3427.43	-30.2429
106.8	-3434.14	-30.1819
106.9	-3437.5	-30.1514
107	-3436.89	-30.2124
107.1	-3419.8	-30.0598
107.2	-3396.61	-30.2429
107.3	-3373.72	-30.0903
107.4	-3357.54	-30.1514
107.5	-3352.66	-30.0903
107.6	-3367.92	-30.2734
107.7	-3374.33	-30.1514
107.8	-3349	-30.1208
107.9	-3315.73	-30.2734
108	-3307.5	-30.1208
108.1	-3316.04	-30.2124
108.2	-3330.99	-30.0903
108.3	-3343.81	-30.1819
108.4	-3359.38	-30.2124
108.5	-3367.61	-30.1514
108.6	-3366.7	-30.304
108.7	-3363.04	-30.1208
108.8	-3366.39	-30.1514
108.9	-3371.89	-30.1208
109	-3367	-30.2429
109.1	-3362.43	-30.0903
109.2	-3379.82	-30.0598
109.3	-3399.66	-30.2734
109.4	-3404.85	-30.0903
109.5	-3381.35	-30.2429
109.6	-3376.16	-30.1208
109.7	-3373.41	-30.304
109.8	-3369.75	-30.0903
109.9	-3365.78	-30.2124
110	-3377.99	-30.1514
110.1	-3389.59	-35.1868
110.2	-3403.02	-35.0647
110.3	-3576.35	-35.1868
110.4	-3720.09	-35.0952
110.5	-3719.79	-35.1868
110.6	-3709.41	-35.2173
110.7	-3697.81	-35.1257
110.8	-3670.35	-35.2478
110.9	-3693.24	-35.0952
111	-3736.27	-35.2478
111.1	-3732.91	-35.0647
111.2	-3698.73	-35.2478
111.3	-3664.55	-35.0952
111.4	-3649.9	-35.1868
111.5	-3668.82	-35.2478
111.6	-3676.15	-35.1563
111.7	-3642.58	-35.2478
111.8	-3613.59	-35.0952
111.9	-3641.36	-35.1563
112	-3672.18	-35.0647
112.1	-3646.24	-35.1868
112.2	-3607.48	-35.0952
112.3	-3585.51	-35.1563
112.4	-3581.54	-35.3088
112.5	-3601.99	-35.1257
112.6	-3614.2	-35.1563
112.7	-3620.91	-35.2478
112.8	-3644.1	-35.0952
112.9	-3655.09	-35.0952
113	-3663.02	-35.1868
113.1	-3658.14	-35.0647
113.2	-3656.62	-35.2478
113.3	-3676.15	-35.1563
113.4	-3678.89	-35.2173
113.5	-3654.79	-35.2478
113.6	-3637.08	-35.0952
113.7	-3644.1	-35.2173
113.8	-3640.44	-35.0952
113.9	-3636.17	-35.1563
114	-3643.19	-35.0647
114.1	-3607.79	-35.2173
114.2	-3585.51	-35.0952
114.3	-3594.06	-35.2478
114.4	-3589.17	-35.1257
114.5	-3583.98	-35.2173
114.6	-3569.95	-35.1563
114.7	-3573.3	-35.1563
114.8	-3607.48	-35.2478
114.9	-3632.81	-35.0342
115	-3612.98	-35.2173
115.1	-3593.14	-35.0952
115.2	-3581.85	-35.2783
115.3	-3571.17	-35.1257
115.4	-3553.16	-35.3088
115.5	-3539.43	-35.1563
115.6	-3551.64	-35.2173
115.7	-3566.89	-35.0647
115.8	-3567.81	-35.2173
115.9	-3546.45	-35.0952
116	-3539.12	-35.2173
116.1	-3525.09	-35.0952
116.2	-3500.98	-35.2173
116.3	-3503.72	-35.0952
116.4	-3520.2	-35.2173
116.5	-3533.33	-35.1868
116.6	-3532.1	-35.1563
116.7	-3531.19	-35.1868
116.8	-3545.53	-35.0952
116.9	-3565.67	-35.2173
117	-3555.6	-35.0952
117.1	-3541.87	-35.1868
117.2	-3551.94	-35.1868
117.3	-3552.55	-35.1563
117.4	-3558.35	-35.3088
117.5	-3565.06	-35.0952
117.6	-3547.67	-35.2173
117.7	-3525.09	-35.1257
117.8	-3520.81	-35.0952
117.9	-3518.37	-35.2783
118	-3492.74	-35.1257
118.1	-3484.19	-35.0647
118.2	-3515.93	-35.2173
118.3	-3502.5	-35.2173
118.4	-3483.28	-35.1563
118.5	-3506.16	-35.3088
118.6	-3507.08	-35.1257
118.7	-3486.02	-35.1563
118.8	-3477.48	-35.2478
118.9	-3487.55	-35.0952
119	-3502.2	-35.2173
119.1	-3490.6	-35.0952
119.2	-3513.18	-35.2478
119.3	-3559.57	-35.1257
119.4	-3540.65	-35.1257
119.5	-3486.02	-35.2783
119.6	-3481.14	-35.1563
119.7	-3523.56	-35.0952
119.8	-3555.91	-35.1563
119.9	-3541.26	-35.2173
120	-3514.4	-35.0647
120.1	-3497.31	-40.1001
120.2	-3505.86	-40.2527
120.3	-3676.45	-40.1917
120.4	-3880	-40.1306
120.5	-3912.05	-40.1611
120.6	-3905.33	-40.2527
120.7	-3890.38	-40.1001
120.8	-3893.43	-40.2222
120.9	-3901.06	-40.0696
121	-3892.21	-40.2527
121.1	-3869.93	-40.1001
121.2	-3850.4	-40.1917
121.3	-3867.19	-40.2222
121.4	-3863.22	-40.1611
121.5	-3855.29	-40.1611
121.6	-3866.88	-40.1611
121.7	-3846.13	-40.1917
121.8	-3789.06	-40.2222
121.9	-3753.97	-40.1001
122	-3767.4	-40.2832
122.1	-3788.45	-40.1001
122.2	-3792.42	-40.2527
122.3	-3782.65	-40.1001
122.4	-3782.04	-40.2527
122.5	-3793.33	-40.0696
122.6	-3784.48	-40.1306
122.7	-3796.39	-40.1306
122.8	-3823.55	-40.1611
122.9	-3832.4	-40.1611
123	-3815.61	-40.2527
123.1	-3798.52	-40.1001
123.2	-3796.39	-40.1611
123.3	-3798.22	-40.0696
123.4	-3830.87	-40.2222
123.5	-3862.92	-40.0696
123.6	-3869.32	-40.1306
123.7	-3861.69	-40.2222
123.8	-3847.35	-40.1917
123.9	-3850.4	-40.2527
124	-3838.2	-40.1001
124.1	-3804.02	-40.2527
124.2	-3804.32	-40.0696
124.3	-3843.38	-40.2222
124.4	-3852.84	-40.1611
124.5	-3814.39	-40.1611
124.6	-3788.15	-40.2222
124.7	-3771.36	-40.1001
124.8	-3762.21	-40.1917
124.9	-3776.86	-40.1001
125	-3800.35	-40.1611
125.1	-3829.04	-40.1917
125.2	-3823.24	-40.1306
125.3	-3806.46	-40.2527
125.4	-3790.28	-40.0696
125.5	-3766.48	-40.2222
125.6	-3783.57	-40.1001
125.7	-3816.22	-40.1611
125.8	-3831.48	-40.1611
125.9	-3860.47	-40.1917
126	-3879.39	-40.1611
126.1	-3868.1	-40.0696
126.2	-3838.81	-40.2832
126.3	-3846.13	-40.0696
126.4	-3873.6	-40.1917
126.5	-3856.81	-40.1917
126.6	-3811.34	-40.1306
126.7	-3776.55	-40.2222
126.8	-3740.84	-40.1611
126.9	-3706.97	-40.2222
127	-3698.12	-40.1001
127.1	-3729.86	-40.1611
127.2	-3764.65	-40.2527
127.3	-3768.92	-40.1917
127.4	-3757.02	-40.2832
127.5	-3739.62	-40.1001
127.6	-3711.24	-40.2222
127.7	-3688.05	-40.0696
127.8	-3693.85	-40.1611
127.9	-3710.02	-40.1611
128	-3731.08	-40.1917
128.1	-3728.64	-40.2222
128.2	-3716.74	-40.1001
128.3	-3683.17	-40.2527
128.4	-3637.7	-40.0696
128.5	-3645.94	-40.1917
128.6	-3667.3	-40.3137
128.7	-3699.34	-40.1306
128.8	-3736.27	-40.0696
128.9	-3742.37	-40.2222
129	-3704.22	-40.1917
129.1	-3666.99	-40.0696
129.2	-3656.62	-40.1306
129.3	-3675.54	-40.2832
129.4	-3702.39	-40.2527
129.5	-3713.68	-40.1001
129.6	-3703.31	-40.1306
129.7	-3688.66	-40.1306
129.8	-3694.76	-40.2222
129.9	-3688.05	-40.1001
130	-3657.84	-40.2832
130.1	-3637.08	-45.105
130.2	-3641.36	-45.1965
130.3	-3768.01	-45.0439
130.4	-3938.9	-45.1965
130.5	-3989.87	-45.0439
130.6	-3978.58	-45.2271
130.7	-3951.11	-45.105
130.8	-3936.77	-45.2576
130.9	-3932.8	-45.0745
131	-3932.5	-45.2271
131.1	-3929.44	-45.0439
131.2	-3938.6	-45.2271
131.3	-3959.05	-45.1355
131.4	-3956.3	-45.1355
131.5	-3936.46	-45.166
131.6	-3922.12	-45.1355
131.7	-3921.2	-45.1355
131.8	-3907.17	-45.0745
131.9	-3879.09	-45.1355
132	-3863.83	-45.1355
132.1	-3876.04	-45.1965
132.2	-3871.15	-45.1355
132.3	-3822.33	-45.166
132.4	-3790.89	-45.0745
132.5	-3788.45	-45.1355
132.6	-3817.75	-45.105
132.7	-3840.33	-45.1355
132.8	-3864.14	-45.2271
132.9	-3885.19	-45.105
133	-3900.76	-45.0439
133.1	-3901.06	-45.2271
133.2	-3895.57	-45.1355
133.3	-3893.74	-45.105
133.4	-3890.38	-45.2881
133.5	-3871.15	-45.0745
133.6	-3840.03	-45.2271
133.7	-3828.13	-45.0439
133.8	-3846.13	-45.1965
133.9	-3876.34	-45.0439
134	-3892.21	-45.2576
134.1	-3895.57	-45.105
134.2	-3901.98	-45.1965
134.3	-3918.15	-45.166
134.4	-3930.66	-45.0439
134.5	-3923.95	-45.1355
134.6	-3854.68	-45.1965
134.7	-3806.76	-45.105
134.8	-3800.35	-45.166
134.9	-3804.93	-45.1355
135	-3837.28	-45.105
135.1	-3867.8	-45.166
135.2	-3884.89	-45.105
135.3	-3903.81	-45.2271
135.4	-3910.52	-45.2271
135.5	-3901.98	-45.0745
135.6	-3896.79	-45.166
135.7	-3860.17	-45.0745
135.8	-3818.66	-45.0745
135.9	-3828.74	-45.2576
136	-3854.37	-45.1355
136.1	-3854.68	-45.166
136.2	-3849.49	-45.166
136.3	-3833.62	-45.105
136.4	-3795.78	-45.166
136.5	-3767.7	-45.105
136.6	-3737.79	-45.2576
136.7	-3739.93	-45.105
136.8	-3744.2	-45.105
136.9	-3725.89	-45.1965
137	-3725.59	-45.1355
137.1	-3732.3	-45.105
137.2	-3763.43	-45.2271
137.3	-3823.24	-45.1965
137.4	-3841.86	-45.0745
137.5	-3845.21	-45.166
137.6	-3870.85	-45.1965
137.7	-3846.13	-45.0439
137.8	-3820.8	-45.2881
137.9	-3812.87	-45.0745
138	-3778.69	-45.105
138.1	-3790.59	-45.1355
138.2	-3814.39	-45.105
138.3	-3818.97	-45.105
138.4	-3853.15	-45.1355
138.5	-3883.97	-45.1965
138.6	-3887.63	-45.0745
138.7	-3883.36	-45.1965
138.8	-3862.92	-45.105
138.9	-3830.87	-45.1965
139	-3817.75	-45.0745
139.1	-3824.16	-45.2271
139.2	-3832.09	-45.105
139.3	-3840.94	-45.1965
139.4	-3840.94	-45.105
139.5	-3828.43	-45.166
139.6	-3833.01	-45.1355
139.7	-3854.06	-45.105
139.8	-3859.25	-45.2576
139.9	-3861.39	-45.105
140	-3886.11	-45.2271
140.1	-3883.97	-45.0439
140.2	-3865.36	-45.1965
140.3	-3862.61	-50.0793
140.4	-3910.22	-50.1709
140.5	-4105.83	-50.1709
140.6	-4216.31	-50.0793
140.7	-4216.31	-50.2319
140.8	-4220.89	-50.0488
140.9	-4223.63	-50.2014
141	-4226.99	-50.0793
141.1	-4215.39	-50.1404
141.2	-4204.71	-50.1099
141.3	-4197.39	-50.1099
141.4	-4196.78	-50.1709
141.5	-4197.08	-50.0793
141.6	-4201.97	-50.2319
141.7	-4203.19	-50.1099
141.8	-4198.91	-50.2319
141.9	-4181.52	-50.1099
142	-4188.54	-50.0793
142.1	-4227.91	-50.2014
142.2	-4263.61	-50.0488
142.3	-4296.88	-50.293
142.4	-4284.36	-50.1099
142.5	-4240.72	-50.1099
142.6	-4218.14	-50.2014
142.7	-4219.67	-50.1709
142.8	-4237.37	-50.0488
142.9	-4244.38	-50.1404
143	-4208.07	-50.2014
143.1	-4159.55	-50.1404
143.2	-4100.65	-50.1099
143.3	-4096.98	-50.1099
143.4	-4141.85	-50.2319
143.5	-4156.49	-50.0793
143.6	-4148.56	-50.2014
143.7	-4161.99	-50.1709
143.8	-4166.26	-50.1404
143.9	-4141.85	-50.2014
144	-4119.87	-50.1099
144.1	-4106.75	-50.0488
144.2	-4108.28	-50.2014
144.3	-4110.72	-50.1099
144.4	-4125.06	-50.1099
144.5	-4127.5	-50.2014
144.6	-4099.43	-50.1404
144.7	-4114.38	-50.0793
144.8	-4168.4	-50.2014
144.9	-4178.16	-50.1099
145	-4149.48	-50.1099
145.1	-4114.69	-50.293
145.2	-4089.66	-50.1709
145.3	-4090.88	-50.0488
145.4	-4073.18	-50.1709
145.5	-4050.6	-50.2014
145.6	-4042.66	-50.0793
145.7	-4066.47	-50.1099
145.8	-4103.7	-50.2014
145.9	-4134.52	-50.2319
146	-4189.76	-50.1099
146.1	-4222.41	-50.0488
146.2	-4242.25	-50.1709
146.3	-4248.66	-50.2319
146.4	-4234.92	-50.0793
146.5	-4244.38	-50.1709
146.6	-4263	-50.1404
146.7	-4248.96	-50.2014
146.8	-4202.27	-50.0488
146.9	-4140.63	-50.2319
147	-4121.4	-50.0793
147.1	-4124.45	-50.1709
147.2	-4110.41	-50.2319
147.3	-4108.58	-50.0793
147.4	-4100.95	-50.2319
147.5	-4092.1	-50.1099
147.6	-4104.92	-50.1404
147.7	-4125.98	-50.2625
147.8	-4109.19	-50.1099
147.9	-4098.82	-50.1099
148	-4093.02	-50.1709
148.1	-4078.37	-50.2319
148.2	-4083.86	-50.1404
148.3	-4106.75	-50.1404
148.4	-4096.37	-50.2014
148.5	-4067.69	-50.2625
148.6	-4047.55	-50.1404
148.7	-4044.49	-50.0488
148.8	-4057.92	-50.1099
148.9	-4091.8	-50.2319
149	-4111.02	-50.2625
149.1	-4087.83	-50.1709
149.2	-4069.82	-50.0793
149.3	-4062.5	-50.0488
149.4	-4062.5	-50.1404
149.5	-4049.99	-50.2319
149.6	-4025.88	-50.0488
149.7	-4047.85	-50.2014
149.8	-4062.19	-50.2319
149.9	-4060.06	-50.0793
150	-4070.43	-50.1099
150.1	-4061.58	-50.2625
150.2	-4050.29	-55.1758
150.3	-4072.88	-55.0842
150.4	-4254.76	-55.1453
150.5	-4443.66	-55.2063
150.6	-4456.48	-55.1147
150.7	-4422.3	-55.1453
150.8	-4388.73	-55.2673
150.9	-4321.29	-55.0842
151	-4276.12	-55.2063
151.1	-4307.86	-55.0537
151.2	-4349.37	-55.2368
151.3	-4378.97	-55.0842
151.4	-4405.82	-55.1453
151.5	-4435.42	-55.2063
151.6	-4445.8	-55.0537
151.7	-4429.63	-55.1147
151.8	-4415.28	-55.2368
151.9	-4415.28	-55.1147
152	-4426.57	-55.2979
152.1	-4429.02	-55.0842
152.2	-4423.52	-55.0537
152.3	-4418.64	-55.2063
152.4	-4421.69	-55.2063
152.5	-4433.29	-55.1147
152.6	-4436.65	-55.1147
152.7	-4440.92	-55.0537
152.8	-4440.92	-55.1453
152.9	-4433.29	-55.2368
153	-4452.82	-55.1147
153.1	-4485.17	-55.0842
153.2	-4520.57	-55.2063
153.3	-4548.65	-55.2368
153.4	-4548.03	-55.2063
153.5	-4534.91	-55.1147
153.6	-4507.75	-55.0537
153.7	-4518.13	-55.0842
153.8	-4553.22	-55.1758
153.9	-4538.57	-55.1147
154	-4497.07	-55.0842
154.1	-4488.53	-55.0232
154.2	-4495.54	-55.0842
154.3	-4487.3	-55.1147
154.4	-4468.38	-55.1453
154.5	-4472.05	-55.2673
154.6	-4486.69	-55.1758
154.7	-4509.89	-55.0537
154.8	-4529.72	-55.0842
154.9	-4511.41	-55.1758
155	-4499.82	-55.2368
155.1	-4508.67	-55.1453
155.2	-4492.49	-55.0842
155.3	-4445.8	-55.2368
155.4	-4439.7	-55.0232
155.5	-4482.42	-55.1453
155.6	-4501.04	-55.0842
155.7	-4510.5	-55.0537
155.8	-4526.37	-55.2673
155.9	-4496.77	-55.0842
156	-4463.2	-55.1147
156.1	-4481.51	-55.2063
156.2	-4520.87	-55.0537
156.3	-4518.13	-55.2368
156.4	-4504.09	-55.2368
156.5	-4529.42	-55.1453
156.6	-4530.64	-55.0537
156.7	-4505	-55.0842
156.8	-4511.41	-55.2063
156.9	-4479.06	-55.1758
157	-4408.57	-55.0842
157.1	-4380.19	-55.2063
157.2	-4377.75	-55.2063
157.3	-4389.95	-55.0842
157.4	-4406.43	-55.0537
157.5	-4422.91	-55.0842
157.6	-4426.88	-55.2368
157.7	-4418.03	-55.1147
157.8	-4420.47	-55.1147
157.9	-4440.31	-55.2368
158	-4423.52	-55.0842
158.1	-4352.11	-55.0537
158.2	-4305.42	-55.2673
158.3	-4328.61	-55.1147
158.4	-4348.45	-55.1758
158.5	-4374.08	-55.2063
158.6	-4388.12	-55.0537
158.7	-4367.98	-55.0537
158.8	-4366.15	-55.1758
158.9	-4406.43	-55.2673
159	-4391.78	-55.1147
159.1	-4361.27	-55.1147
159.2	-4377.44	-55.1758
159.3	-4412.84	-55.0842
159.4	-4432.98	-55.1758
159.5	-4448.85	-55.1147
159.6	-4442.75	-55.0842
159.7	-4448.55	-55.1453
159.8	-4469.3	-55.2368
159.9	-4460.45	-55.1453
160	-4458.01	-55.0537
160.1	-4485.47	-55.0842
160.2	-4475.71	-60.2112
160.3	-4510.8	-60.0586
160.4	-4708.25	-60.2417
160.5	-4849.55	-60.1807
160.6	-4927.98	-60.0891
160.7	-4966.74	-60.0891
160.8	-4981.08	-60.2112
160.9	-5013.43	-60.2112
161	-5058.59	-60.0891
161.1	-5057.07	-60.1501
161.2	-5030.52	-60.2722
161.3	-5019.84	-60.0891
161.4	-5021.06	-60.0891
161.5	-5026.55	-60.0891
161.6	-4999.08	-60.1501
161.7	-4948.43	-60.1807
161.8	-4926.45	-60.1196
161.9	-4909.36	-60.2722
162	-4912.11	-60.1196
162.1	-4967.96	-60.1196
162.2	-5012.82	-60.1807
162.3	-5004.58	-60.1807
162.4	-4975.89	-60.0586
162.5	-4958.5	-60.1196
162.6	-4909.06	-60.1807
162.7	-4881.29	-60.2417
162.8	-4864.5	-60.1807
162.9	-4843.14	-60.0586
163	-4883.12	-60.0891
163.1	-4933.78	-60.2112
163.2	-4950.56	-60.0891
163.3	-4931.95	-60.1501
163.4	-4927.98	-60.2417
163.5	-4957.28	-60.0891
163.6	-4949.95	-60.0891
163.7	-4936.22	-60.2112
163.8	-4942.93	-60.0891
163.9	-4944.15	-60.0586
164	-4904.79	-60.2722
164.1	-4839.17	-60.1196
164.2	-4809.27	-60.1807
164.3	-4815.98	-60.0891
164.4	-4849.55	-60.1196
164.5	-4874.27	-60.1501
164.6	-4870.3	-60.0281
164.7	-4885.56	-60.1807
164.8	-4947.51	-60.2722
164.9	-4974.98	-60.1196
165	-4940.8	-60.1196
165.1	-4912.11	-60.2112
165.2	-4908.45	-60.0891
165.3	-4872.44	-60.0891
165.4	-4875.79	-60.1501
165.5	-4884.03	-60.2417
165.6	-4838.26	-60.1501
165.7	-4814.76	-60.1196
165.8	-4833.37	-60.2112
165.9	-4859.01	-60.0281
166	-4901.12	-60.1807
166.1	-4896.85	-60.1501
166.2	-4880.98	-60.0586
166.3	-4889.83	-60.1807
166.4	-4913.02	-60.2112
166.5	-4924.62	-60.0891
166.6	-4895.32	-60.2112
166.7	-4858.09	-60.0586
166.8	-4820.86	-60.1196
166.9	-4798.28	-60.2112
167	-4824.52	-60.0891
167.1	-4849.85	-60.2417
167.2	-4848.94	-60.0586
167.3	-4877.93	-60.2112
167.4	-4922.18	-60.0586
167.5	-4908.45	-60.1196
167.6	-4894.41	-60.2417
167.7	-4867.25	-60.2112
167.8	-4857.79	-60.0891
167.9	-4857.79	-60.0891
168	-4883.42	-60.2112
168.1	-4921.88	-60.1807
168.2	-4917.91	-60.0891
168.3	-4910.28	-60.0891
168.4	-4903.56	-60.1807
168.5	-4892.88	-60.2112
168.6	-4824.83	-60.1807
168.7	-4776.92	-60.0891
168.8	-4800.72	-60.1196
168.9	-4844.36	-60.1807
169	-4831.85	-60.1807
169.1	-4789.12	-60.1501
169.2	-4785.77	-60.2112
169.3	-4799.5	-60.0891
169.4	-4791.87	-60.1501
169.5	-4819.95	-60.1196
169.6	-4837.04	-60.1196
169.7	-4833.07	-60.2722
169.8	-4858.7	-60.1196
169.9	-4892.27	-60.0586
170	-4873.96	-60.0586
170.1	-4824.52	-60.1501
170.2	-4792.48	-65.2161
170.3	-4812.01	-65.094
170.4	-4986.57	-65.094
170.5	-5144.35	-65.2161
170.6	-5199.28	-65.033
170.7	-5251.77	-65.0024
170.8	-5300.6	-65.2161
170.9	-5365.91	-65.094
171	-5400.7	-65.1245
171.1	-5372.92	-65.1855
171.2	-5350.95	-65.1245
171.3	-5327.45	-65.033
171.4	-5304.57	-65.0635
171.5	-5330.81	-65.2161
171.6	-5379.64	-65.2161
171.7	-5420.23	-65.0635
171.8	-5429.38	-65.0635
171.9	-5415.65	-65.094
172	-5421.45	-65.2466
172.1	-5439.76	-65.0635
172.2	-5455.93	-65.1855
172.3	-5445.86	-65.155
172.4	-5419.01	-65.0635
172.5	-5381.77	-65.2161
172.6	-5319.21	-65.094
172.7	-5286.25	-65.033
172.8	-5321.96	-65.094
172.9	-5357.36	-65.2466
173	-5374.45	-65.1245
173.1	-5401.61	-65.0635
173.2	-5410.16	-65.0635
173.3	-5417.79	-65.1245
173.4	-5399.78	-65.1855
173.5	-5342.41	-65.1855
173.6	-5274.35	-65.1855
173.7	-5219.42	-65.094
173.8	-5240.78	-65.0635
173.9	-5293.58	-65.1855
174	-5284.73	-65.2161
174.1	-5281.68	-65.155
174.2	-5300.29	-65.0024
174.3	-5281.68	-65.033
174.4	-5278.63	-65.155
174.5	-5298.77	-65.1855
174.6	-5326.23	-65.094
174.7	-5348.82	-65.094
174.8	-5373.84	-65.1855
174.9	-5404.36	-65.155
175	-5459.59	-65.0635
175.1	-5470.58	-65.033
175.2	-5412.29	-65.033
175.3	-5360.72	-65.2161
175.4	-5353.09	-65.1245
175.5	-5344.85	-65.1245
175.6	-5296.63	-65.2466
175.7	-5274.35	-65.033
175.8	-5268.86	-65.1245
175.9	-5275.27	-65.155
176	-5253.3	-65.033
176.1	-5272.83	-65.033
176.2	-5323.79	-65.2161
176.3	-5321.04	-65.094
176.4	-5291.75	-65.0635
176.5	-5264.59	-65.1855
176.6	-5230.41	-65.0635
176.7	-5224	-65.0635
176.8	-5202.03	-65.2161
176.9	-5219.42	-65.033
177	-5240.78	-65.0635
177.1	-5210.88	-65.2466
177.2	-5184.63	-65.1855
177.3	-5186.77	-65.0635
177.4	-5203.55	-65.2161
177.5	-5224.91	-65.0635
177.6	-5202.94	-65.1855
177.7	-5192.26	-65.033
177.8	-5212.1	-65.1245
177.9	-5229.19	-65.2161
178	-5215.15	-65.1855
178.1	-5180.05	-65.033
178.2	-5137.63	-65.0635
178.3	-5139.47	-65.094
178.4	-5132.75	-65.1855
178.5	-5068.36	-65.0635
178.6	-5050.05	-65.033
178.7	-5086.67	-65.0635
178.8	-5109.25	-65.0635
178.9	-5112.3	-65.0635
179	-5116.58	-65.094
179.1	-5101.32	-65.1245
179.2	-5098.88	-65.094
179.3	-5125.43	-65.1855
179.4	-5155.33	-65.155
179.5	-5171.51	-65.1855
179.6	-5161.44	-65.1245
179.7	-5132.14	-65.094
179.8	-5127.87	-65.1855
179.9	-5176.7	-65.1855
180	-5215.76	-65.033
180.1	-5212.71	-65.033
180.2	-5222.17	-70.0989
180.3	-5243.23	-70.1904
180.4	-5372.62	-70.1904
180.5	-5494.38	-70.0684
180.6	-5566.71	-70.0684
180.7	-5641.17	-70.0684
180.8	-5638.73	-70.1294
180.9	-5626.22	-70.1294
181	-5658.87	-70.1904
181.1	-5715.03	-70.1904
181.2	-5756.23	-70.1294
181.3	-5716.25	-70.0684
181.4	-5648.19	-70.0684
181.5	-5600.28	-70.0684
181.6	-5606.08	-70.0684
181.7	-5635.99	-70.0073
181.8	-5687.26	-70.1294
181.9	-5717.47	-70.2209
182	-5678.1	-70.1599
182.1	-5613.1	-70.0989
182.2	-5610.66	-70.0378
182.3	-5624.69	-70.0378
182.4	-5619.2	-70.1599
182.5	-5625.31	-70.1904
182.6	-5688.78	-70.0989
182.7	-5709.53	-70.0989
182.8	-5662.23	-70.0684
182.9	-5664.67	-70.0073
183	-5685.73	-70.1599
183.1	-5660.71	-70.1294
183.2	-5629.27	-70.0073
183.3	-5625.31	-70.1904
183.4	-5636.6	-70.2209
183.5	-5606.99	-70.2209
183.6	-5530.7	-70.1294
183.7	-5477.91	-70.0684
183.8	-5439.45	-70.0378
183.9	-5447.39	-70.0684
184	-5480.96	-70.2209
184.1	-5496.52	-70.1599
184.2	-5486.76	-70.0073
184.3	-5490.11	-70.0684
184.4	-5493.47	-70.1904
184.5	-5513.31	-70.2209
184.6	-5535.58	-70.0989
184.7	-5513.61	-70.0989
184.8	-5537.41	-70.2515
184.9	-5575.56	-70.0989
185	-5567.93	-70.0684
185.1	-5594.48	-70.0378
185.2	-5635.68	-70.0989
185.3	-5622.86	-70.1599
185.4	-5547.18	-70.2209
185.5	-5519.1	-70.0684
185.6	-5543.52	-70.0378
185.7	-5533.75	-70.1904
185.8	-5499.88	-70.0684
185.9	-5479.74	-70.0073
186	-5504.46	-70.1599
186.1	-5561.22	-70.2209
186.2	-5598.45	-70.1294
186.3	-5567.93	-70.0073
186.4	-5536.5	-70.0378
186.5	-5521.85	-70.0989
186.6	-5512.7	-70.1904
186.7	-5535.28	-70.1599
186.8	-5538.64	-70.0989
186.9	-5526.12	-70.0989
187	-5500.49	-70.1294
187.1	-5471.19	-70.1294
187.2	-5475.46	-70.0073
187.3	-5477.91	-70.0989
187.4	-5491.94	-70.2209
187.5	-5525.82	-70.1599
187.6	-5487.06	-70.0684
187.7	-5445.25	-70.0073
187.8	-5462.04	-70.0989
187.9	-5453.8	-70.1599
188	-5436.71	-70.2515
188.1	-5452.88	-70.1904
188.2	-5464.48	-70.0684
188.3	-5454.71	-70.0684
188.4	-5421.75	-70.0684
188.5	-5423.58	-70.0684
188.6	-5470.28	-70.2515
188.7	-5462.95	-70.1294
188.8	-5412.6	-70.0378
188.9	-5409.24	-70.0378
189	-5407.41	-70.0684
189.1	-5402.83	-70.1904
189.2	-5383.91	-70.2515
189.3	-5353.09	-70.2515
189.4	-5358.28	-70.1904
189.5	-5387.27	-70.1599
189.6	-5412.9	-70.2209
189.7	-5435.79	-70.2209
189.8	-5418.4	-70.2515
189.9	-5383.91	-70.2209
190	-5401.61	-70.1904
190.1	-5470.28	-75.2258
190.2	-5505.68	-75.1648
190.3	-5585.02	-75.1038
190.4	-5802.61	-75.0427
190.5	-5918.88	-75.0732
190.6	-5898.13	-75.0732
190.7	-5839.54	-75.0122
190.8	-5850.52	-75.0427
190.9	-5856.02	-75.0122
191	-5806.27	-75.0122
191.1	-5780.64	-75.0427
191.2	-5807.8	-75.0427
191.3	-5798.34	-74.9817
191.4	-5751.04	-74.9817
191.5	-5714.42	-75.1648
191.6	-5723.57	-75.1648
191.7	-5773.62	-75.0732
191.8	-5810.55	-75.0122
191.9	-5782.78	-75.0732
192	-5768.13	-75.1648
192.1	-5782.47	-75.1648
192.2	-5800.48	-75.1343
192.3	-5841.98	-75.0122
192.4	-5845.95	-75.0122
192.5	-5822.75	-75.1038
192.6	-5781.56	-75.1953
192.7	-5767.21	-75.0122
192.8	-5786.44	-75.0427
192.9	-5814.82	-75.1648
193	-5843.81	-75.0427
193.1	-5834.35	-75.0122
193.2	-5805.05	-75.1953
193.3	-5776.67	-75.1648
193.4	-5800.17	-75.0427
193.5	-5834.05	-74.9817
193.6	-5799.56	-75.0122
193.7	-5761.11	-75.2258
193.8	-5762.63	-75.1648
193.9	-5749.51	-75.0427
194	-5730.59	-75.1038
194.1	-5706.18	-75.0732
194.2	-5668.95	-75.0427
194.3	-5672.91	-75.0732
194.4	-5694.89	-75.0427
194.5	-5709.53	-75.1343
194.6	-5696.72	-75.1648
194.7	-5648.8	-75.0732
194.8	-5674.44	-75.1038
194.9	-5717.16	-75.1038
195	-5682.68	-75.0122
195.1	-5657.65	-74.9817
195.2	-5669.86	-75.0427
195.3	-5711.06	-75.1648
195.4	-5729.37	-75.2258
195.5	-5704.35	-75.1343
195.6	-5688.48	-75.0427
195.7	-5692.14	-75.0122
195.8	-5743.41	-75.0427
195.9	-5774.23	-75.1038
196	-5778.81	-75.1648
196.1	-5739.75	-75.1648
196.2	-5690.31	-75.0122
196.3	-5679.63	-75.1038
196.4	-5696.11	-75.1953
196.5	-5732.42	-75.0427
196.6	-5686.04	-75.0427
196.7	-5625.31	-75.0427
196.8	-5624.69	-75.2258
196.9	-5657.04	-75.1648
197	-5669.86	-75.1648
197.1	-5678.1	-75.1038
197.2	-5686.34	-75.0427
197.3	-5677.49	-75.0732
197.4	-5648.8	-75.0427
197.5	-5608.83	-75.0427
197.6	-5525.21	-75.0122
197.7	-5469.97	-75.0427
197.8	-5542.6	-75.0732
197.9	-5658.57	-75.0122
198	-5660.4	-75.0122
198.1	-5634.46	-75.0732
198.2	-5624.69	-75.1648
198.3	-5591.74	-75.1343
198.4	-5574.34	-75.0427
198.5	-5573.43	-75.0122
198.6	-5615.54	-75.0122
198.7	-5670.47	-75.1953
198.8	-5693.66	-75.1648
198.9	-5719.91	-75.0427
199	-5693.66	-74.9817
199.1	-5655.52	-75.0732
199.2	-5629.58	-75.1953
199.3	-5603.64	-75.1038
199.4	-5572.81	-74.9817
199.5	-5588.68	-75.2258
199.6	-5649.11	-75.0427
199.7	-5669.56	-75.1343
199.8	-5645.75	-75.0122
199.9	-5614.01	-75.0427
200	-5584.41	-75.1953
200.1	-5550.84	-75.0122
200.2	-5552.98	-80.1392
200.3	-5626.22	-80.1697
200.4	-5851.14	-80.0476
200.5	-5961	-80.0476
200.6	-5935.97	-80.1697
200.7	-5949.4	-80.0171
200.8	-5947.88	-80.0476
200.9	-5904.85	-80.2307
201	-5910.34	-80.0781
201.1	-5929.26	-80.0171
201.2	-5874.94	-80.1086
201.3	-5802.92	-80.2002
201.4	-5849.91	-80.0171
201.5	-5903.63	-80.0781
201.6	-5910.34	-80.1392
201.7	-5903.63	-80.1392
201.8	-5915.53	-80.0171
201.9	-5939.64	-80.0781
202	-5921.63	-80.1392
202.1	-5867.92	-80.0171
202.2	-5810.55	-80.1392
202.3	-5803.53	-80.0781
202.4	-5817.57	-79.9866
202.5	-5842.29	-80.1697
202.6	-5835.57	-80.2002
202.7	-5808.41	-79.9866
202.8	-5784.3	-80.0171
202.9	-5799.26	-80.2002
203	-5841.37	-80.1697
203.1	-5878.91	-80.0781
203.2	-5879.82	-80.0171
203.3	-5854.8	-80.0476
203.4	-5834.35	-80.1086
203.5	-5800.17	-80.1392
203.6	-5803.22	-80.1697
203.7	-5811.46	-80.0476
203.8	-5804.14	-80.0781
203.9	-5757.45	-80.1086
204	-5696.72	-80.1697
204.1	-5704.35	-80.1392
204.2	-5747.07	-80.1392
204.3	-5760.5	-79.9866
204.4	-5743.71	-80.0171
204.5	-5700.99	-79.9866
204.6	-5700.07	-80.0171
204.7	-5715.94	-80.1392
204.8	-5706.48	-80.1697
204.9	-5697.02	-80.1086
205	-5690.61	-80.0781
205.1	-5718.38	-80.0781
205.2	-5743.41	-80.2002
205.3	-5723.27	-80.1697
205.4	-5710.75	-80.1086
205.5	-5712.89	-80.0171
205.6	-5740.36	-80.0476
205.7	-5750.73	-80.2002
205.8	-5714.42	-80.1392
205.9	-5693.05	-79.9866
206	-5694.27	-80.0171
206.1	-5684.51	-80.2002
206.2	-5632.93	-80.1697
206.3	-5595.4	-80.0171
206.4	-5596.31	-80.0171
206.5	-5598.14	-80.1697
206.6	-5604.55	-80.0476
206.7	-5601.2	-80.0781
206.8	-5563.05	-80.2002
206.9	-5537.11	-80.0781
207	-5512.7	-80.0171
207.1	-5518.8	-80.1086
207.2	-5545.96	-80.1392
207.3	-5554.81	-80.0171
207.4	-5563.66	-80.0476
207.5	-5544.74	-80.0476
207.6	-5555.42	-80.0476
207.7	-5584.41	-80.2002
207.8	-5580.44	-80.1086
207.9	-5585.63	-80.0781
208	-5562.44	-80.0476
208.1	-5525.51	-80.0781
208.2	-5527.34	-80.1086
208.3	-5558.47	-80.2307
208.4	-5559.69	-80.1697
208.5	-5585.33	-80.1392
208.6	-5595.09	-80.1697
208.7	-5549.01	-80.1697
208.8	-5522.77	-80.1086
208.9	-5527.95	-80.1392
209	-5485.84	-80.1392
209.1	-5502.32	-80.0476
209.2	-5545.35	-79.9866
209.3	-5554.5	-80.0476
209.4	-5506.59	-80.2002
209.5	-5461.12	-80.1697
209.6	-5440.98	-80.0781
209.7	-5452.88	-80.0476
209.8	-5489.2	-79.9866
