ATF	1.0
7	3     
"AcquisitionMode=Gap Free"
"Comment="
"YTop=10000,1000"
"YBottom=-10000,-1000"
"SweepStartTimesMS=0.000"
"SignalsExported=Im_Scaled,10_mv"
"Signals="	"Im_Scaled"	"10_mv"
"Time (s)"	"Trace #1 (pA)"	"Trace #1 (mV)"
0	1335.14	19.6533
0.1	1327.82	19.7144
0.2	1323.85	19.8059
0.3	1322.63	19.7449
0.4	1322.02	19.7449
0.5	1321.11	19.7449
0.6	1319.58	19.7449
0.7	1320.8	19.6838
0.8	1323.85	19.6838
0.9	1319.27	19.6533
1	1314.39	19.5923
1.1	1310.12	19.6533
1.2	1314.7	19.6533
1.3	1322.02	19.7754
1.4	1328.43	19.7754
1.5	1329.35	19.7449
1.6	1324.16	19.6228
1.7	1318.05	19.6533
1.8	1318.36	19.6228
1.9	1319.58	19.5923
2	1319.89	19.6533
2.1	1321.41	19.5923
2.2	1319.27	19.7144
2.3	1318.05	19.6838
2.4	1316.83	19.7754
2.5	1318.05	19.7754
2.6	1322.33	19.7754
2.7	1326.6	19.7754
2.8	1328.13	19.6228
2.9	1327.21	19.6533
3	1324.46	19.5923
3.1	1327.51	19.6228
3.2	1332.09	19.7754
3.3	1332.09	19.7754
3.4	1335.75	19.7449
3.5	1336.98	19.6228
3.6	1330.57	19.7754
3.7	1329.96	19.7754
3.8	1328.74	19.6838
3.9	1330.57	19.5923
4	1332.09	19.8059
4.1	1325.68	19.7144
4.2	1325.68	19.6533
4.3	1329.96	19.8059
4.4	1329.35	19.6838
4.5	1328.43	19.6838
4.6	1331.48	19.7449
4.7	1330.26	19.8059
4.8	1329.35	19.5923
4.9	1329.65	19.8059
5	1325.99	19.7144
5.1	1325.99	19.7449
5.2	1329.04	19.7449
5.3	1329.65	19.6533
5.4	1332.09	19.6838
5.5	1330.26	19.7754
5.6	1321.72	19.8059
5.7	1319.58	19.6228
5.8	1322.63	19.6533
5.9	1325.38	19.5923
6	1324.16	19.6228
6.1	1322.02	19.7449
6.2	1321.11	19.6838
6.3	1320.8	19.7144
6.4	1318.66	19.7449
6.5	1322.33	19.7754
6.6	1327.82	19.7754
6.7	1322.02	19.7754
6.8	1322.94	19.6533
6.9	1325.99	19.6533
7	1325.68	19.8059
7.1	1322.94	19.7754
7.2	1320.19	19.7449
7.3	1317.75	19.6228
7.4	1315.92	19.8059
7.5	1314.7	19.6838
7.6	1314.39	19.6533
7.7	1318.66	19.7754
7.8	1322.63	19.8364
7.9	1321.72	19.7144
8	1322.02	19.5923
8.1	1324.46	19.8059
8.2	1326.29	19.5923
8.3	1321.11	19.7754
8.4	1317.44	19.5923
8.5	1319.27	19.8059
8.6	1324.46	19.6228
8.7	1327.82	19.7754
8.8	1325.07	19.6533
8.9	1324.16	19.8059
9	1318.97	19.7754
9.1	1318.05	19.5618
9.2	1322.94	19.8364
9.3	1328.13	19.6838
9.4	1329.04	19.6533
9.5	1327.21	19.7144
9.6	1323.85	19.6533
9.7	1321.41	19.7449
9.8	1320.5	19.6838
9.9	1319.89	19.7754
10	1320.8	19.7754
10.1	1323.85	19.6228
10.2	1327.82	14.6484
10.3	1215.21	14.801
10.4	906.982	14.7095
10.5	766.602	14.6179
10.6	768.433	14.74
10.7	770.264	14.74
10.8	771.484	14.6484
10.9	773.315	14.7705
11	773.01	14.679
11.1	771.79	14.6484
11.2	770.264	14.8315
11.3	768.738	14.6179
11.4	768.127	14.7095
11.5	769.653	14.7705
11.6	770.569	14.6484
11.7	771.484	14.74
11.8	771.179	14.7705
11.9	769.043	14.6179
12	769.653	14.801
12.1	770.264	14.7095
12.2	770.874	14.679
12.3	770.569	14.7705
12.4	771.179	14.679
12.5	770.569	14.679
12.6	768.738	14.74
12.7	767.822	14.679
12.8	764.771	14.6179
12.9	764.771	14.801
13	766.907	14.74
13.1	768.127	14.6484
13.2	768.433	14.6179
13.3	767.822	14.7095
13.4	765.991	14.7705
13.5	768.738	14.7705
13.6	769.043	14.7095
13.7	766.907	14.6484
13.8	770.264	14.7705
13.9	773.01	14.74
14	772.705	14.801
14.1	774.841	14.7095
14.2	775.452	14.7095
14.3	775.452	14.6484
14.4	774.231	14.6484
14.5	772.705	14.5569
14.6	775.146	14.6484
14.7	776.367	14.6179
14.8	773.926	14.6484
14.9	769.958	14.6179
15	769.043	14.6179
15.1	769.043	14.679
15.2	770.569	14.679
15.3	769.653	14.7705
15.4	770.264	14.7705
15.5	770.874	14.801
15.6	770.874	14.5874
15.7	772.095	14.7095
15.8	771.79	14.74
15.9	772.705	14.7705
16	774.536	14.6484
16.1	774.841	14.5874
16.2	771.79	14.6484
16.3	768.433	14.6179
16.4	768.738	14.7705
16.5	770.264	14.74
16.6	771.179	14.7705
16.7	769.958	14.7705
16.8	768.127	14.801
16.9	769.958	14.7705
17	770.264	14.7705
17.1	768.738	14.74
17.2	767.212	14.74
17.3	767.517	14.74
17.4	768.433	14.5874
17.5	768.127	14.6179
17.6	769.653	14.6179
17.7	770.264	14.6179
17.8	770.264	14.679
17.9	770.874	14.7705
18	770.874	14.74
18.1	768.433	14.801
18.2	769.958	14.7705
18.3	773.315	14.7705
18.4	773.01	14.7705
18.5	773.621	14.679
18.6	770.264	14.74
18.7	767.517	14.5569
18.8	765.686	14.6484
18.9	765.991	14.679
19	769.043	14.679
19.1	770.874	14.74
19.2	770.569	14.74
19.3	771.79	14.801
19.4	771.484	14.7705
19.5	771.484	14.7705
19.6	774.841	14.6484
19.7	775.757	14.6484
19.8	775.757	14.7095
19.9	775.757	14.801
20	773.01	14.74
20.1	770.874	14.7095
20.2	773.621	9.64355
20.3	719.91	9.61304
20.4	431.213	9.67407
20.5	213.928	9.73511
20.6	195.007	9.79614
20.7	196.838	9.76563
20.8	195.618	9.73511
20.9	195.618	9.61304
21	195.313	9.67407
21.1	194.397	9.70459
21.2	194.397	9.73511
21.3	193.787	9.79614
21.4	193.481	9.76563
21.5	193.481	9.79614
21.6	193.787	9.79614
21.7	193.787	9.76563
21.8	194.092	9.61304
21.9	194.397	9.73511
22	194.092	9.79614
22.1	194.397	9.70459
22.2	194.397	9.67407
22.3	194.092	9.64355
22.4	194.092	9.73511
22.5	194.092	9.76563
22.6	194.092	9.73511
22.7	194.092	9.64355
22.8	194.397	9.64355
22.9	194.397	9.73511
23	194.092	9.73511
23.1	193.787	9.82666
23.2	193.787	9.76563
23.3	194.092	9.76563
23.4	194.092	9.73511
23.5	193.481	9.58252
23.6	193.787	9.70459
23.7	193.787	9.76563
23.8	193.787	9.79614
23.9	194.397	9.61304
24	194.092	9.76563
24.1	193.176	9.79614
24.2	193.176	9.70459
24.3	192.871	9.64355
24.4	192.566	9.58252
24.5	191.65	9.67407
24.6	191.956	9.58252
24.7	191.956	9.67407
24.8	191.956	9.61304
24.9	191.65	9.61304
25	191.04	9.70459
25.1	191.345	9.70459
25.2	191.345	9.76563
25.3	191.65	9.73511
25.4	192.261	9.73511
25.5	192.261	9.82666
25.6	192.261	9.76563
25.7	192.566	9.79614
25.8	192.871	9.73511
25.9	193.176	9.73511
26	192.566	9.70459
26.1	192.871	9.67407
26.2	192.871	9.67407
26.3	192.566	9.58252
26.4	192.566	9.70459
26.5	192.871	9.70459
26.6	192.566	9.82666
26.7	191.956	9.76563
26.8	191.956	9.73511
26.9	191.956	9.70459
27	191.65	9.61304
27.1	191.345	9.79614
27.2	191.65	9.67407
27.3	192.566	9.64355
27.4	192.261	9.70459
27.5	192.261	9.76563
27.6	192.566	9.79614
27.7	193.176	9.73511
27.8	192.261	9.61304
27.9	191.345	9.70459
28	191.65	9.76563
28.1	191.04	9.82666
28.2	191.04	9.76563
28.3	191.65	9.79614
28.4	191.956	9.73511
28.5	192.566	9.64355
28.6	192.566	9.64355
28.7	191.65	9.70459
28.8	192.261	9.79614
28.9	192.261	9.73511
29	191.956	9.79614
29.1	191.65	9.67407
29.2	191.65	9.552
29.3	191.04	9.70459
29.4	191.04	9.58252
29.5	191.04	9.73511
29.6	191.04	9.79614
29.7	190.735	9.70459
29.8	190.735	9.73511
29.9	191.04	9.70459
30	191.345	9.70459
30.1	191.04	9.70459
30.2	191.345	9.64355
30.3	190.735	4.82178
30.4	121.46	4.79126
30.5	-173.95	4.85229
30.6	-367.737	4.69971
30.7	-379.028	4.66919
30.8	-378.418	4.69971
30.9	-380.859	4.79126
31	-381.47	4.85229
31.1	-380.554	4.79126
31.2	-380.859	4.82178
31.3	-382.08	4.76074
31.4	-381.47	4.66919
31.5	-381.47	4.63867
31.6	-380.554	4.66919
31.7	-380.554	4.82178
31.8	-380.859	4.85229
31.9	-380.554	4.79126
32	-380.249	4.79126
32.1	-380.554	4.66919
32.2	-380.249	4.69971
32.3	-380.859	4.63867
32.4	-380.249	4.69971
32.5	-379.944	4.82178
32.6	-381.165	4.85229
32.7	-381.47	4.85229
32.8	-381.47	4.79126
32.9	-381.165	4.76074
33	-381.165	4.73022
33.1	-380.859	4.57764
33.2	-381.47	4.69971
33.3	-381.47	4.63867
33.4	-380.249	4.69971
33.5	-379.639	4.73022
33.6	-379.333	4.66919
33.7	-379.944	4.66919
33.8	-381.165	4.63867
33.9	-381.165	4.69971
34	-380.554	4.66919
34.1	-379.639	4.63867
34.2	-379.333	4.69971
34.3	-379.639	4.63867
34.4	-381.165	4.63867
34.5	-380.249	4.66919
34.6	-378.723	4.60815
34.7	-379.333	4.73022
34.8	-380.554	4.73022
34.9	-379.639	4.79126
35	-379.639	4.79126
35.1	-379.944	4.79126
35.2	-380.554	4.82178
35.3	-380.554	4.85229
35.4	-380.249	4.82178
35.5	-381.165	4.85229
35.6	-380.249	4.82178
35.7	-380.859	4.76074
35.8	-381.47	4.76074
35.9	-381.47	4.73022
36	-382.08	4.79126
36.1	-382.08	4.76074
36.2	-382.08	4.82178
36.3	-384.521	4.79126
36.4	-385.742	4.82178
36.5	-383.911	4.76074
36.6	-382.08	4.76074
36.7	-382.69	4.76074
36.8	-382.08	4.69971
36.9	-380.554	4.82178
37	-380.554	4.82178
37.1	-381.165	4.82178
37.2	-381.165	4.85229
37.3	-381.775	4.66919
37.4	-384.216	4.66919
37.5	-384.827	4.76074
37.6	-383.606	4.82178
37.7	-384.521	4.85229
37.8	-384.521	4.79126
37.9	-384.827	4.76074
38	-383.911	4.76074
38.1	-383.911	4.63867
38.2	-384.521	4.69971
38.3	-384.827	4.73022
38.4	-384.216	4.79126
38.5	-384.521	4.82178
38.6	-383.911	4.85229
38.7	-384.827	4.82178
38.8	-384.827	4.76074
38.9	-384.216	4.79126
39	-385.132	4.63867
39.1	-385.437	4.66919
39.2	-384.216	4.69971
39.3	-384.521	4.69971
39.4	-384.827	4.79126
39.5	-383.606	4.79126
39.6	-383.301	4.79126
39.7	-383.606	4.76074
39.8	-383.301	4.69971
39.9	-383.606	4.73022
40	-385.132	4.60815
40.1	-385.437	4.66919
40.2	-384.827	4.69971
40.3	-385.437	-0.396729
40.4	-395.508	-0.305176
40.5	-574.036	-0.427246
40.6	-866.394	-0.305176
40.7	-950.928	-0.335693
40.8	-947.876	-0.396729
40.9	-949.097	-0.305176
41	-947.266	-0.305176
41.1	-945.129	-0.305176
41.2	-943.604	-0.213623
41.3	-943.298	-0.213623
41.4	-942.688	-0.213623
41.5	-944.214	-0.396729
41.6	-946.045	-0.335693
41.7	-946.655	-0.366211
41.8	-947.266	-0.183105
41.9	-947.876	-0.152588
42	-946.35	-0.244141
42.1	-946.96	-0.305176
42.2	-946.045	-0.244141
42.3	-946.655	-0.152588
42.4	-947.571	-0.244141
42.5	-948.181	-0.335693
42.6	-950.012	-0.213623
42.7	-947.266	-0.183105
42.8	-943.909	-0.213623
42.9	-942.078	-0.305176
43	-944.214	-0.213623
43.1	-945.129	-0.244141
43.2	-942.993	-0.244141
43.3	-943.909	-0.183105
43.4	-945.435	-0.274658
43.5	-945.74	-0.366211
43.6	-945.74	-0.244141
43.7	-945.129	-0.183105
43.8	-940.857	-0.213623
43.9	-941.467	-0.366211
44	-944.214	-0.183105
44.1	-941.772	-0.183105
44.2	-943.604	-0.335693
44.3	-944.214	-0.244141
44.4	-944.214	-0.152588
44.5	-947.266	-0.183105
44.6	-949.402	-0.244141
44.7	-947.571	-0.244141
44.8	-943.298	-0.335693
44.9	-943.604	-0.335693
45	-946.96	-0.305176
45.1	-946.96	-0.366211
45.2	-942.993	-0.366211
45.3	-941.162	-0.335693
45.4	-944.214	-0.366211
45.5	-947.876	-0.305176
45.6	-945.435	-0.366211
45.7	-942.078	-0.274658
45.8	-942.993	-0.274658
45.9	-946.96	-0.366211
46	-948.792	-0.335693
46.1	-945.74	-0.366211
46.2	-947.266	-0.305176
46.3	-948.181	-0.213623
46.4	-949.707	-0.244141
46.5	-951.843	-0.183105
46.6	-953.674	-0.183105
46.7	-955.2	-0.183105
46.8	-953.674	-0.183105
46.9	-953.369	-0.213623
47	-953.369	-0.213623
47.1	-948.486	-0.244141
47.2	-947.876	-0.305176
47.3	-947.571	-0.305176
47.4	-943.909	-0.335693
47.5	-942.993	-0.366211
47.6	-946.35	-0.213623
47.7	-950.012	-0.183105
47.8	-950.012	-0.244141
47.9	-947.266	-0.213623
48	-944.519	-0.274658
48.1	-945.74	-0.274658
48.2	-945.129	-0.274658
48.3	-944.519	-0.274658
48.4	-946.35	-0.244141
48.5	-946.655	-0.183105
48.6	-949.097	-0.183105
48.7	-950.623	-0.305176
48.8	-950.012	-0.366211
48.9	-948.486	-0.305176
49	-946.96	-0.335693
49.1	-947.571	-0.335693
49.2	-948.486	-0.244141
49.3	-949.402	-0.183105
49.4	-952.148	-0.183105
49.5	-951.233	-0.274658
49.6	-943.298	-0.305176
49.7	-943.604	-0.366211
49.8	-947.571	-0.244141
49.9	-946.045	-0.213623
50	-943.298	-0.152588
50.1	-944.214	-0.183105
50.2	-944.519	-5.21851
50.3	-1032.71	-5.27954
50.4	-1321.41	-5.27954
50.5	-1476.44	-5.24902
50.6	-1482.54	-5.12695
50.7	-1484.38	-5.27954
50.8	-1489.26	-5.34058
50.9	-1491.09	-5.15747
51	-1488.95	-5.21851
51.1	-1489.56	-5.24902
51.2	-1488.95	-5.27954
51.3	-1486.51	-5.27954
51.4	-1484.68	-5.24902
51.5	-1481.32	-5.18799
51.6	-1484.07	-5.15747
51.7	-1490.48	-5.24902
51.8	-1494.14	-5.27954
51.9	-1490.48	-5.15747
52	-1488.95	-5.12695
52.1	-1492	-5.37109
52.2	-1493.84	-5.24902
52.3	-1489.87	-5.12695
52.4	-1492	-5.18799
52.5	-1493.84	-5.24902
52.6	-1497.5	-5.31006
52.7	-1498.72	-5.09644
52.8	-1495.67	-5.27954
52.9	-1489.87	-5.15747
53	-1485.29	-5.27954
53.1	-1484.07	-5.15747
53.2	-1488.65	-5.31006
53.3	-1491.09	-5.18799
53.4	-1487.73	-5.21851
53.5	-1490.17	-5.31006
53.6	-1487.73	-5.12695
53.7	-1487.12	-5.31006
53.8	-1492.61	-5.24902
53.9	-1485.9	-5.15747
54	-1476.44	-5.31006
54.1	-1480.1	-5.21851
54.2	-1488.34	-5.15747
54.3	-1488.04	-5.21851
54.4	-1487.43	-5.27954
54.5	-1488.95	-5.18799
54.6	-1482.24	-5.31006
54.7	-1477.36	-5.18799
54.8	-1480.41	-5.18799
54.9	-1482.54	-5.15747
55	-1481.63	-5.24902
55.1	-1486.21	-5.31006
55.2	-1487.12	-5.18799
55.3	-1484.99	-5.15747
55.4	-1482.24	-5.34058
55.5	-1482.85	-5.24902
55.6	-1484.38	-5.18799
55.7	-1478.88	-5.15747
55.8	-1476.75	-5.27954
55.9	-1484.38	-5.31006
56	-1489.87	-5.12695
56.1	-1488.65	-5.24902
56.2	-1486.51	-5.24902
56.3	-1482.85	-5.09644
56.4	-1479.8	-5.31006
56.5	-1481.32	-5.21851
56.6	-1484.07	-5.18799
56.7	-1477.97	-5.31006
56.8	-1473.69	-5.12695
56.9	-1474.61	-5.27954
57	-1468.51	-5.18799
57.1	-1471.25	-5.31006
57.2	-1475.83	-5.12695
57.3	-1478.27	-5.34058
57.4	-1481.32	-5.09644
57.5	-1484.68	-5.21851
57.6	-1484.07	-5.21851
57.7	-1481.63	-5.12695
57.8	-1481.02	-5.24902
57.9	-1479.19	-5.37109
58	-1478.58	-5.18799
58.1	-1477.97	-5.15747
58.2	-1484.38	-5.18799
58.3	-1490.17	-5.27954
58.4	-1485.9	-5.27954
58.5	-1482.24	-5.15747
58.6	-1478.88	-5.18799
58.7	-1478.58	-5.37109
58.8	-1480.41	-5.12695
58.9	-1482.85	-5.21851
59	-1480.71	-5.40161
59.1	-1466.67	-5.15747
59.2	-1471.25	-5.12695
59.3	-1479.49	-5.37109
59.4	-1481.63	-5.15747
59.5	-1484.68	-5.18799
59.6	-1487.73	-5.34058
59.7	-1483.76	-5.15747
59.8	-1473.39	-5.31006
59.9	-1475.22	-5.21851
60	-1484.07	-5.18799
60.1	-1484.99	-10.2844
60.2	-1497.5	-10.1624
60.3	-1685.79	-10.2539
60.4	-1947.63	-10.1624
60.5	-1999.51	-10.2234
60.6	-1989.75	-10.1624
60.7	-2001.95	-10.2234
60.8	-1998.6	-10.1624
60.9	-1991.88	-10.1318
61	-1989.14	-10.2539
61.1	-1988.83	-10.1013
61.2	-1991.27	-10.2844
61.3	-1994.93	-10.1013
61.4	-2000.12	-10.2539
61.5	-1996.46	-10.1318
61.6	-1987	-10.3149
61.7	-1978.45	-10.1318
61.8	-1984.86	-10.2539
61.9	-2000.12	-10.1318
62	-2007.45	-10.2539
62.1	-2006.53	-10.1013
62.2	-2012.63	-10.2844
62.3	-2009.89	-10.1624
62.4	-2002.87	-10.1624
62.5	-2009.89	-10.2234
62.6	-2011.41	-10.1929
62.7	-2008.67	-10.0708
62.8	-2009.58	-10.2844
62.9	-1999.21	-10.1013
63	-1993.1	-10.2844
63.1	-1998.29	-10.1929
63.2	-2002.56	-10.1318
63.3	-2008.36	-10.2844
63.4	-2001.65	-10.1013
63.5	-1994.63	-10.1929
63.6	-2001.04	-10.2539
63.7	-1993.41	-10.1318
63.8	-1981.2	-10.2539
63.9	-1991.88	-10.2234
64	-1999.51	-10.1013
64.1	-1991.27	-10.3149
64.2	-1994.32	-10.1318
64.3	-1997.07	-10.2844
64.4	-2000.43	-10.1624
64.5	-2001.65	-10.2844
64.6	-2006.84	-10.1318
64.7	-2007.75	-10.3149
64.8	-1997.99	-10.1013
64.9	-1996.77	-10.2234
65	-2001.34	-10.1624
65.1	-1994.93	-10.2844
65.2	-1992.49	-10.1013
65.3	-1999.51	-10.3455
65.4	-2008.06	-10.1318
65.5	-2004.09	-10.1318
65.6	-2000.12	-10.2539
65.7	-2002.87	-10.1624
65.8	-2003.17	-10.2539
65.9	-2001.04	-10.1624
66	-2004.7	-10.3149
66.1	-2001.95	-10.0708
66.2	-2005.31	-10.2539
66.3	-2014.77	-10.2844
66.4	-2021.48	-10.1929
66.5	-2020.87	-10.1318
66.6	-2012.94	-10.1624
66.7	-2010.19	-10.2539
66.8	-2012.94	-10.3149
66.9	-2016.3	-10.2234
67	-2007.14	-10.1929
67.1	-2005.62	-10.1624
67.2	-2015.69	-10.1013
67.3	-2016.91	-10.1318
67.4	-2013.24	-10.2539
67.5	-2010.19	-10.1929
67.6	-2009.58	-10.1013
67.7	-2001.65	-10.2844
67.8	-1993.71	-10.1318
67.9	-1998.6	-10.1318
68	-2002.56	-10.2234
68.1	-2007.14	-10.3149
68.2	-2009.28	-10.2539
68.3	-2007.14	-10.2539
68.4	-2006.84	-10.2539
68.5	-2007.75	-10.1929
68.6	-2007.14	-10.1929
68.7	-2009.28	-10.1318
68.8	-2009.28	-10.1013
68.9	-2010.19	-10.1013
69	-2015.99	-10.1624
69.1	-2014.16	-10.1013
69.2	-2002.87	-10.1318
69.3	-2001.04	-10.1624
69.4	-2010.19	-10.1013
69.5	-2019.04	-10.1318
69.6	-2016.3	-10.1318
69.7	-2011.41	-10.1624
69.8	-2005.92	-10.2234
69.9	-2005.62	-10.2844
70	-2005	-10.2539
70.1	-2000.12	-10.2844
70.2	-2006.53	-10.3149
70.3	-2015.69	-15.2283
70.4	-2048.34	-15.2283
70.5	-2292.18	-15.1367
70.6	-2503.66	-15.1062
70.7	-2519.53	-15.1978
70.8	-2510.38	-15.1978
70.9	-2506.1	-15.1978
71	-2507.93	-15.2893
71.1	-2517.09	-15.1672
71.2	-2504.27	-15.1367
71.3	-2507.02	-15.2283
71.4	-2523.8	-15.2588
71.5	-2521.67	-15.1978
71.6	-2521.97	-15.1672
71.7	-2524.72	-15.1062
71.8	-2522.89	-15.0757
71.9	-2514.04	-15.1672
72	-2507.93	-15.1062
72.1	-2502.14	-15.1062
72.2	-2498.78	-15.1367
72.3	-2508.24	-15.1062
72.4	-2522.58	-15.1367
72.5	-2523.5	-15.1672
72.6	-2515.87	-15.1672
72.7	-2503.66	-15.1062
72.8	-2503.05	-15.1367
72.9	-2505.19	-15.1367
73	-2509.16	-15.1367
73.1	-2518.01	-15.1367
73.2	-2518.31	-15.1672
73.3	-2502.75	-15.1672
73.4	-2493.29	-15.1367
73.5	-2500	-15.1062
73.6	-2506.1	-15.1367
73.7	-2497.56	-15.1367
73.8	-2499.08	-15.1978
73.9	-2510.38	-15.2893
74	-2501.22	-15.2588
74.1	-2492.37	-15.2893
74.2	-2493.29	-15.2588
74.3	-2480.77	-15.2893
74.4	-2463.99	-15.2588
74.5	-2466.74	-15.1672
74.6	-2489.62	-15.1367
74.7	-2489.93	-15.1978
74.8	-2492.37	-15.1062
74.9	-2502.14	-15.1367
75	-2509.77	-15.2893
75.1	-2514.95	-15.2588
75.2	-2502.44	-15.1978
75.3	-2489.32	-15.2893
75.4	-2481.38	-15.2588
75.5	-2471.92	-15.2893
75.6	-2478.03	-15.2893
75.7	-2498.78	-15.1367
75.8	-2509.16	-15.1062
75.9	-2506.1	-15.1672
76	-2496.95	-15.2588
76.1	-2499.69	-15.2588
76.2	-2497.25	-15.3198
76.3	-2486.27	-15.2588
76.4	-2494.51	-15.1672
76.5	-2501.22	-15.1367
76.6	-2500.61	-15.1062
76.7	-2484.74	-15.2283
76.8	-2492.07	-15.2893
76.9	-2503.97	-15.0757
77	-2492.37	-15.1978
77.1	-2480.77	-15.2588
77.2	-2479.86	-15.1062
77.3	-2498.78	-15.1367
77.4	-2503.05	-15.2893
77.5	-2498.47	-15.1978
77.6	-2504.58	-15.1672
77.7	-2499.69	-15.1672
77.8	-2487.49	-15.1062
77.9	-2492.37	-15.1367
78	-2503.97	-15.1367
78.1	-2503.36	-15.2588
78.2	-2502.14	-15.1672
78.3	-2509.16	-15.1367
78.4	-2506.1	-15.1672
78.5	-2501.53	-15.3503
78.6	-2493.29	-15.2588
78.7	-2488.4	-15.0757
78.8	-2498.78	-15.1367
78.9	-2505.8	-15.2588
79	-2505.49	-15.2893
79.1	-2504.88	-15.2283
79.2	-2498.17	-15.1672
79.3	-2501.22	-15.1062
79.4	-2506.71	-15.1672
79.5	-2500	-15.1367
79.6	-2496.34	-15.0757
79.7	-2494.81	-15.2283
79.8	-2503.36	-15.2588
79.9	-2494.81	-15.1062
80	-2488.4	-15.2283
80.1	-2493.29	-15.1672
80.2	-2491.15	-20.1416
80.3	-2509.16	-20.2332
80.4	-2687.38	-20.2637
80.5	-2932.74	-20.1416
80.6	-2989.5	-20.2026
80.7	-2982.18	-20.2026
80.8	-2978.52	-20.1721
80.9	-2975.77	-20.1416
81	-2967.22	-20.1111
81.1	-2960.51	-20.3247
81.2	-2965.39	-20.1111
81.3	-2966.61	-20.2026
81.4	-2947.39	-20.2637
81.5	-2933.65	-20.1416
81.6	-2926.03	-20.1416
81.7	-2918.09	-20.2637
81.8	-2919.31	-20.1416
81.9	-2924.5	-20.2026
82	-2945.86	-20.2637
82.1	-2958.07	-20.1111
82.2	-2945.56	-20.2942
82.3	-2927.25	-20.2026
82.4	-2922.97	-20.1111
82.5	-2927.55	-20.2637
82.6	-2913.82	-20.2637
82.7	-2901.61	-20.1416
82.8	-2914.43	-20.1721
82.9	-2927.25	-20.2942
83	-2921.75	-20.2026
83.1	-2906.19	-20.1111
83.2	-2893.98	-20.1721
83.3	-2893.68	-20.2942
83.4	-2902.83	-20.1111
83.5	-2913.51	-20.1721
83.6	-2911.68	-20.2942
83.7	-2902.83	-20.1721
83.8	-2897.03	-20.1416
83.9	-2894.59	-20.1721
84	-2895.51	-20.2637
84.1	-2897.34	-20.1721
84.2	-2891.85	-20.1721
84.3	-2895.51	-20.3247
84.4	-2904.05	-20.1111
84.5	-2906.8	-20.05
84.6	-2909.55	-20.2637
84.7	-2908.02	-20.2637
84.8	-2911.99	-20.1416
84.9	-2921.75	-20.1111
85	-2924.19	-20.2637
85.1	-2930.91	-20.2942
85.2	-2930.91	-20.1721
85.3	-2918.7	-20.1111
85.4	-2896.42	-20.2332
85.5	-2886.96	-20.1721
85.6	-2893.98	-20.2026
85.7	-2908.33	-20.2026
85.8	-2924.8	-20.1416
85.9	-2920.53	-20.2942
86	-2907.41	-20.0806
86.1	-2910.16	-20.2637
86.2	-2918.4	-20.2637
86.3	-2906.49	-20.0806
86.4	-2905.58	-20.1416
86.5	-2912.29	-20.2332
86.6	-2908.63	-20.2637
86.7	-2915.95	-20.1721
86.8	-2908.94	-20.1111
86.9	-2893.68	-20.2026
87	-2900.7	-20.1416
87.1	-2909.85	-20.1111
87.2	-2919.62	-20.2942
87.3	-2928.47	-20.1721
87.4	-2915.65	-20.1111
87.5	-2912.9	-20.3247
87.6	-2913.51	-20.1416
87.7	-2908.94	-20.1721
87.8	-2920.23	-20.3247
87.9	-2937.32	-20.1416
88	-2935.49	-20.1721
88.1	-2926.33	-20.3247
88.2	-2915.04	-20.1416
88.3	-2908.33	-20.1721
88.4	-2909.24	-20.2637
88.5	-2905.58	-20.2026
88.6	-2895.2	-20.1721
88.7	-2897.95	-20.1111
88.8	-2903.14	-20.3247
88.9	-2906.8	-20.1721
89	-2901.61	-20.1416
89.1	-2899.48	-20.2026
89.2	-2897.03	-20.2942
89.3	-2906.8	-20.1721
89.4	-2904.05	-20.1416
89.5	-2891.85	-20.2637
89.6	-2899.48	-20.2637
89.7	-2909.24	-20.0806
89.8	-2898.86	-20.2332
89.9	-2889.1	-20.2026
90	-2897.34	-20.1111
90.1	-2900.7	-20.2942
90.2	-2894.9	-25.116
90.3	-2998.66	-25.238
90.4	-3251.04	-25.2075
90.5	-3340.45	-25.116
90.6	-3301.39	-25.2991
90.7	-3300.48	-25.116
90.8	-3314.21	-25.2991
90.9	-3299.56	-25.1465
91	-3294.37	-25.238
91.1	-3288.27	-25.1465
91.2	-3294.07	-25.2991
91.3	-3318.48	-25.0854
91.4	-3323.06	-25.238
91.5	-3310.55	-25.116
91.6	-3301.39	-25.2991
91.7	-3287.66	-25.1465
91.8	-3261.72	-25.177
91.9	-3253.17	-25.2686
92	-3255.92	-25.1465
92.1	-3274.54	-25.2991
92.2	-3284.3	-25.116
92.3	-3273.93	-25.238
92.4	-3284	-25.177
92.5	-3311.46	-25.238
92.6	-3319.4	-25.116
92.7	-3324.89	-25.2686
92.8	-3329.16	-25.116
92.9	-3309.94	-25.2991
93	-3300.78	-25.116
93.1	-3297.73	-25.238
93.2	-3294.98	-25.238
93.3	-3300.78	-25.0854
93.4	-3301.39	-25.3296
93.5	-3308.41	-25.177
93.6	-3299.87	-25.238
93.7	-3270.26	-25.1465
93.8	-3268.13	-25.2075
93.9	-3280.64	-25.1465
94	-3285.22	-25.1465
94.1	-3282.47	-25.1465
94.2	-3276.98	-25.1465
94.3	-3256.53	-25.2686
94.4	-3252.87	-25.177
94.5	-3262.94	-25.177
94.6	-3284	-25.2686
94.7	-3310.55	-25.116
94.8	-3325.5	-25.2991
94.9	-3307.19	-25.116
95	-3281.56	-25.2686
95.1	-3281.86	-25.177
95.2	-3275.76	-25.116
95.3	-3265.99	-25.2686
95.4	-3264.16	-25.0549
95.5	-3261.72	-25.238
95.6	-3270.26	-25.2991
95.7	-3277.28	-25.0854
95.8	-3270.87	-25.2686
95.9	-3274.23	-25.177
96	-3289.18	-25.177
96.1	-3286.44	-25.238
96.2	-3276.98	-25.116
96.3	-3262.33	-25.3296
96.4	-3250.73	-25.177
96.5	-3247.99	-25.116
96.6	-3261.72	-25.2686
96.7	-3272.4	-25.116
96.8	-3281.56	-25.177
96.9	-3275.76	-25.177
97	-3274.54	-25.2686
97.1	-3287.66	-25.1465
97.2	-3302.31	-25.1465
97.3	-3316.96	-25.2686
97.4	-3327.03	-25.116
97.5	-3337.1	-25.2686
97.6	-3344.12	-25.2075
97.7	-3340.76	-25.116
97.8	-3318.18	-25.2075
97.9	-3291.32	-25.2686
98	-3267.21	-25.116
98.1	-3271.79	-25.2991
98.2	-3306.27	-25.177
98.3	-3316.35	-25.2686
98.4	-3294.07	-25.177
98.5	-3278.2	-25.1465
98.6	-3277.89	-25.238
98.7	-3279.42	-25.116
98.8	-3285.52	-25.238
98.9	-3292.54	-25.2075
99	-3294.98	-25.0854
99.1	-3286.44	-25.238
99.2	-3284.61	-25.1465
99.3	-3282.47	-25.116
99.4	-3280.33	-25.3601
99.5	-3285.83	-25.177
99.6	-3268.74	-25.1465
99.7	-3255.31	-25.3296
99.8	-3251.34	-25.116
99.9	-3248.29	-25.2686
100	-3274.23	-25.2686
100.1	-3303.83	-30.1514
100.2	-3351.14	-30.1208
100.3	-3539.73	-30.2124
100.4	-3683.17	-30.1514
100.5	-3693.24	-30.2429
100.6	-3676.45	-30.0903
100.7	-3640.75	-30.1514
100.8	-3645.32	-30.2124
100.9	-3656.62	-30.0903
101	-3646.55	-30.2429
101.1	-3643.49	-30.1208
101.2	-3610.23	-30.2429
101.3	-3592.83	-30.0903
101.4	-3602.6	-30.2429
101.5	-3615.42	-30.1208
101.6	-3621.83	-30.1208
101.7	-3612.98	-30.2429
101.8	-3629.46	-30.0598
101.9	-3631.29	-30.2124
102	-3615.72	-30.1208
102.1	-3601.68	-30.1208
102.2	-3581.24	-30.304
102.3	-3569.64	-30.1819
102.4	-3562.62	-30.1208
102.5	-3545.84	-30.0903
102.6	-3558.35	-30.0598
102.7	-3595.28	-30.0903
102.8	-3608.7	-30.0598
102.9	-3620.61	-30.1208
103	-3626.4	-30.1514
103.1	-3609.92	-30.2429
103.2	-3610.53	-30.304
103.3	-3604.43	-30.1208
103.4	-3607.79	-30.1208
103.5	-3617.55	-30.1208
103.6	-3586.43	-30.0903
103.7	-3560.49	-30.0903
103.8	-3569.64	-30.0903
103.9	-3572.39	-30.1208
104	-3553.47	-30.1514
104.1	-3548.58	-30.1514
104.2	-3557.43	-30.1819
104.3	-3555.6	-30.1208
104.4	-3567.2	-30.1208
104.5	-3592.83	-30.0903
104.6	-3597.72	-30.2429
104.7	-3595.89	-30.2429
104.8	-3601.68	-30.1514
104.9	-3603.82	-30.1208
105	-3602.6	-30.0903
105.1	-3586.73	-30.1208
105.2	-3574.52	-30.1208
105.3	-3565.67	-30.1208
105.4	-3564.15	-30.1208
105.5	-3562.01	-30.0598
105.6	-3547.36	-30.0293
105.7	-3536.68	-30.0903
105.8	-3542.48	-30.0903
105.9	-3550.42	-30.0598
106	-3536.07	-30.1819
106.1	-3510.13	-30.2124
106.2	-3498.54	-30.2734
106.3	-3526.31	-30.0903
106.4	-3553.77	-30.0903
106.5	-3541.26	-30.1819
106.6	-3527.53	-30.2734
106.7	-3530.27	-30.2124
106.8	-3537.29	-30.0598
106.9	-3538.21	-30.1819
107	-3558.04	-30.1819
107.1	-3571.17	-30.2124
107.2	-3538.82	-30.0903
107.3	-3518.68	-30.1514
107.4	-3533.02	-30.2124
107.5	-3558.96	-30.0903
107.6	-3567.5	-30.2734
107.7	-3565.67	-30.1208
107.8	-3569.03	-30.0903
107.9	-3572.08	-30.1208
108	-3557.43	-30.2429
108.1	-3540.34	-30.2429
108.2	-3518.68	-30.1819
108.3	-3521.42	-30.0903
108.4	-3545.53	-30.1514
108.5	-3543.7	-30.2124
108.6	-3555.91	-30.0903
108.7	-3581.85	-30.2734
108.8	-3591.92	-30.0903
108.9	-3578.8	-30.2429
109	-3564.45	-30.2124
109.1	-3573.3	-30.1208
109.2	-3571.17	-30.2124
109.3	-3573	-30.2124
109.4	-3577.58	-30.2429
109.5	-3588.56	-30.0903
109.6	-3556.82	-30.1208
109.7	-3515.01	-30.2124
109.8	-3502.5	-30.304
109.9	-3498.84	-30.1208
110	-3498.23	-30.1208
110.1	-3511.05	-30.2124
110.2	-3546.75	-35.2783
110.3	-3602.6	-35.0647
110.4	-3820.19	-35.1868
110.5	-3948.06	-35.2478
110.6	-3930.66	-35.2173
110.7	-3924.26	-35.1563
110.8	-3903.81	-35.1257
110.9	-3899.54	-35.0952
111	-3910.22	-35.0647
111.1	-3886.11	-35.0952
111.2	-3852.84	-35.0952
111.3	-3844.3	-35.1868
111.4	-3837.28	-35.2173
111.5	-3828.43	-35.2783
111.6	-3832.09	-35.0952
111.7	-3868.1	-35.1257
111.8	-3891.3	-35.0647
111.9	-3881.53	-35.1868
112	-3861.69	-35.2173
112.1	-3877.87	-35.2478
112.2	-3913.57	-35.1868
112.3	-3908.69	-35.1257
112.4	-3873.6	-35.0952
112.5	-3860.17	-35.0342
112.6	-3861.08	-35.2173
112.7	-3851.32	-35.1868
112.8	-3822.02	-35.2783
112.9	-3794.86	-35.2173
113	-3793.33	-35.2783
113.1	-3786.62	-35.1563
113.2	-3792.42	-35.1563
113.3	-3811.65	-35.1257
113.4	-3847.96	-35.1563
113.5	-3868.41	-35.0647
113.6	-3861.39	-35.1868
113.7	-3832.4	-35.2173
113.8	-3792.11	-35.2478
113.9	-3787.23	-35.0952
114	-3790.89	-35.1563
114.1	-3769.23	-35.2478
114.2	-3748.47	-35.0952
114.3	-3751.83	-35.0647
114.4	-3742.37	-35.2783
114.5	-3756.41	-35.0647
114.6	-3773.8	-35.2783
114.7	-3749.08	-35.1868
114.8	-3738.1	-35.1257
114.9	-3750.92	-35.0952
115	-3775.63	-35.1257
115.1	-3791.5	-35.0952
115.2	-3790.28	-35.1257
115.3	-3800.05	-35.1257
115.4	-3792.42	-35.2783
115.5	-3771.97	-35.1868
115.6	-3767.4	-35.0952
115.7	-3753.36	-35.0952
115.8	-3728.64	-35.1868
115.9	-3721.62	-35.1868
116	-3725.59	-35.3088
116.1	-3743.59	-35.1868
116.2	-3763.73	-35.1257
116.3	-3766.78	-35.1563
116.4	-3760.68	-35.3088
116.5	-3758.85	-35.1563
116.6	-3751.22	-35.1257
116.7	-3733.22	-35.0647
116.8	-3724.06	-35.2478
116.9	-3722.53	-35.2478
117	-3721.62	-35.2173
117.1	-3739.62	-35.1257
117.2	-3765.26	-35.1563
117.3	-3771.67	-35.1563
117.4	-3760.07	-35.2478
117.5	-3737.18	-35.0952
117.6	-3715.52	-35.1868
117.7	-3718.87	-35.2783
117.8	-3724.98	-35.0952
117.9	-3724.37	-35.1257
118	-3736.57	-35.2478
118.1	-3758.24	-35.0952
118.2	-3754.58	-35.2783
118.3	-3734.74	-35.0647
118.4	-3706.36	-35.2478
118.5	-3662.41	-35.0647
118.6	-3636.47	-35.2478
118.7	-3653.56	-35.0647
118.8	-3675.84	-35.2478
118.9	-3679.5	-35.1868
119	-3675.54	-35.0952
119.1	-3669.74	-35.2478
119.2	-3675.54	-35.0647
119.3	-3676.15	-35.2783
119.4	-3677.67	-35.1257
119.5	-3679.5	-35.1563
119.6	-3657.53	-35.2478
119.7	-3642.58	-35.0647
119.8	-3642.27	-35.1868
119.9	-3636.78	-35.1868
120	-3656.92	-35.0952
120.1	-3690.49	-35.2478
120.2	-3711.55	-40.1917
120.3	-3795.17	-40.0696
120.4	-3994.45	-40.1611
120.5	-4078.67	-40.2527
120.6	-4078.37	-40.2832
120.7	-4088.13	-40.1917
120.8	-4075.32	-40.1611
120.9	-4024.66	-40.1306
121	-3980.1	-40.2222
121.1	-3948.97	-40.1611
121.2	-3945.31	-40.1917
121.3	-3950.5	-40.2527
121.4	-3950.2	-40.0696
121.5	-3944.7	-40.1306
121.6	-3942.26	-40.2222
121.7	-3936.46	-40.1306
121.8	-3926.7	-40.1001
121.9	-3932.8	-40.3137
122	-3932.5	-40.1611
122.1	-3925.78	-40.1917
122.2	-3929.75	-40.1306
122.3	-3930.36	-40.2527
122.4	-3916.02	-40.1306
122.5	-3903.2	-40.1917
122.6	-3897.4	-40.1917
122.7	-3910.52	-40.1611
122.8	-3935.85	-40.2527
122.9	-3932.8	-40.1001
123	-3911.74	-40.1917
123.1	-3897.71	-40.1917
123.2	-3891.3	-40.0696
123.3	-3872.99	-40.2832
123.4	-3843.69	-40.0696
123.5	-3814.7	-40.3137
123.6	-3838.81	-40.0696
123.7	-3876.65	-40.2222
123.8	-3894.65	-40.1917
123.9	-3909.3	-40.1611
124	-3893.13	-40.2222
124.1	-3891.91	-40.1917
124.2	-3891.91	-40.1306
124.3	-3883.67	-40.1306
124.4	-3894.65	-40.2527
124.5	-3911.44	-40.1001
124.6	-3927.92	-45.105
124.7	-3983.15	-45.1965
124.8	-4158.63	-45.0745
124.9	-4226.68	-45.2271
125	-4175.42	-45.105
125.1	-4131.77	-45.0745
125.2	-4120.79	-45.2271
125.3	-4132.39	-45.105
125.4	-4149.17	-45.105
125.5	-4178.16	-45.166
125.6	-4183.04	-45.0439
125.7	-4159.24	-45.1355
125.8	-4137.88	-45.105
125.9	-4120.48	-45.1965
126	-4144.29	-45.1355
126.1	-4159.24	-45.166
126.2	-4158.63	-45.105
126.3	-4181.52	-45.2271
126.4	-4194.64	-45.105
126.5	-4184.88	-45.2271
126.6	-4171.45	-45.105
126.7	-4159.55	-45.1965
126.8	-4167.79	-45.0745
126.9	-4181.21	-45.1965
127	-4164.73	-45.0745
127.1	-4154.66	-45.166
127.2	-4141.54	-45.2271
127.3	-4115.91	-45.105
127.4	-4135.44	-45.0134
127.5	-4176.94	-45.105
127.6	-4205.02	-45.1965
127.7	-4218.75	-45.1355
127.8	-4201.35	-45.0745
127.9	-4172.97	-45.2271
128	-4152.22	-45.0745
128.1	-4171.75	-45.2271
128.2	-4200.13	-45.105
128.3	-4165.34	-45.1965
128.4	-4158.02	-45.2271
128.5	-4203.49	-45.105
128.6	-4250.49	-45.2271
128.7	-4234.01	-45.0439
128.8	-4207.15	-45.2271
128.9	-4213.26	-45.0745
129	-4241.33	-45.166
129.1	-4245	-45.0439
129.2	-4186.1	-45.1965
129.3	-4153.44	-45.166
129.4	-4169.31	-45.105
129.5	-4176.03	-45.1965
129.6	-4191.59	-45.105
129.7	-4194.03	-45.0745
129.8	-4178.16	-45.1965
129.9	-4162.29	-45.1965
130	-4166.26	-45.1965
130.1	-4157.1	-45.0439
130.2	-4129.64	-45.105
130.3	-4089.36	-45.2271
130.4	-4083.86	-45.1355
130.5	-4116.21	-45.0439
130.6	-4127.2	-45.2271
130.7	-4125.06	-45.0745
130.8	-4137.88	-45.166
130.9	-4153.44	-45.1355
131	-4118.35	-45.0745
131.1	-4122.92	-45.1965
131.2	-4148.86	-45.0439
131.3	-4122.01	-45.166
131.4	-4091.19	-45.0745
131.5	-4103.39	-45.2271
131.6	-4160.77	-45.0745
131.7	-4212.95	-45.2881
131.8	-4230.04	-45.0745
131.9	-4225.46	-45.2271
132	-4211.12	-45.1355
132.1	-4193.73	-45.105
132.2	-4177.55	-45.2271
132.3	-4188.84	-45.1355
132.4	-4169.92	-45.1355
132.5	-4091.19	-45.1355
132.6	-4048.16	-45.0745
132.7	-4057.92	-45.2576
132.8	-4068.3	-45.0134
132.9	-4068.6	-45.2271
133	-4050.9	-45.105
133.1	-4030.15	-45.1965
133.2	-4018.86	-45.1355
133.3	-4009.4	-45.0745
133.4	-4001.16	-45.2271
133.5	-3993.23	-45.0745
133.6	-4010.01	-45.2271
133.7	-4048.46	-45.0745
133.8	-4083.25	-45.1965
133.9	-4108.28	-45.166
134	-4120.48	-45.0745
134.1	-4129.64	-45.166
134.2	-4133.91	-45.2576
134.3	-4094.54	-45.166
134.4	-4058.53	-45.105
134.5	-4074.4	-45.0439
134.6	-4085.08	-45.105
134.7	-4110.41	-45.2576
134.8	-4137.57	-45.105
134.9	-4148.56	-45.0745
135	-4138.49	-45.166
135.1	-4108.58	-50.2014
135.2	-4133	-50.0488
135.3	-4279.79	-50.2319
135.4	-4332.89	-50.0793
135.5	-4342.65	-50.2319
135.6	-4429.93	-50.0793
135.7	-4479.37	-50.2625
135.8	-4466.25	-50.0793
135.9	-4443.36	-50.2625
136	-4397.89	-50.0793
136.1	-4350.28	-50.2319
136.2	-4342.35	-50.0488
136.3	-4393.92	-50.2625
136.4	-4459.84	-50.0793
136.5	-4490.66	-50.1404
136.6	-4482.73	-50.1099
136.7	-4483.34	-50.1709
136.8	-4480.9	-50.0793
136.9	-4481.81	-50.1709
137	-4465.33	-50.1099
137.1	-4438.17	-50.1099
137.2	-4429.02	-50.2319
137.3	-4426.88	-50.0793
137.4	-4394.23	-50.2014
137.5	-4359.74	-50.1709
137.6	-4338.68	-50.1099
137.7	-4347.53	-50.2319
137.8	-4352.42	-50.0793
137.9	-4338.38	-50.1404
138	-4333.19	-50.1404
138.1	-4324.95	-50.0793
138.2	-4322.51	-50.2014
138.3	-4342.96	-50.1099
138.4	-4343.87	-50.0793
138.5	-4358.83	-50.1404
138.6	-4383.85	-50.2014
138.7	-4382.02	-50.1099
138.8	-4378.97	-50.2319
138.9	-4388.73	-50.1099
139	-4384.16	-50.2625
139.1	-4376.53	-50.0793
139.2	-4380.19	-50.2319
139.3	-4366.46	-50.0488
139.4	-4385.68	-50.2319
139.5	-4407.65	-50.1099
139.6	-4403.08	-50.1099
139.7	-4409.79	-50.2625
139.8	-4432.68	-50.1099
139.9	-4444.58	-50.2014
140	-4441.22	-50.1404
140.1	-4458.62	-50.2014
140.2	-4468.99	-50.1099
140.3	-4473.27	-50.1709
140.4	-4491.58	-50.1709
140.5	-4467.16	-50.0793
140.6	-4457.09	-50.2014
140.7	-4506.23	-50.2014
140.8	-4515.38	-50.0488
140.9	-4479.37	-50.1404
141	-4467.77	-50.2319
141.1	-4479.06	-50.1709
141.2	-4470.21	-50.0793
141.3	-4450.68	-50.2014
141.4	-4465.64	-50.1404
141.5	-4481.2	-50.1099
141.6	-4468.38	-50.2319
141.7	-4437.26	-50.0793
141.8	-4442.75	-50.0793
141.9	-4458.31	-50.2014
142	-4471.13	-50.1099
142.1	-4500.73	-50.1404
142.2	-4513.24	-50.2625
142.3	-4473.27	-50.0793
142.4	-4410.71	-50.1709
142.5	-4377.75	-50.2014
142.6	-4424.13	-50.1099
142.7	-4483.95	-50.2014
142.8	-4490.66	-50.1099
142.9	-4458.62	-50.1709
143	-4426.57	-50.1099
143.1	-4437.26	-50.2319
143.2	-4424.44	-50.0793
143.3	-4388.73	-50.1099
143.4	-4399.72	-50.1709
143.5	-4439.39	-50.0793
143.6	-4466.86	-50.2319
143.7	-4461.67	-50.0793
143.8	-4448.24	-50.2014
143.9	-4443.97	-50.0488
144	-4449.16	-50.2319
144.1	-4446.72	-50.0488
144.2	-4429.02	-50.1709
144.3	-4428.71	-50.1099
144.4	-4423.52	-50.0793
144.5	-4431.15	-50.1709
144.6	-4417.72	-50.1099
144.7	-4367.98	-50.1709
144.8	-4359.13	-50.1404
144.9	-4367.37	-50.0793
145	-4340.52	-50.2014
145.1	-4329.53	-50.0793
145.2	-4354.25	-50.2014
145.3	-4341.43	-50.0793
145.4	-4312.13	-50.1709
145.5	-4339.6	-50.0488
145.6	-4371.34	-50.2319
145.7	-4392.09	-50.0793
145.8	-4424.74	-50.2625
145.9	-4452.82	-50.0488
146	-4494.32	-50.2014
146.1	-4512.02	-50.1099
146.2	-4483.03	-50.1404
146.3	-4444.58	-50.2319
146.4	-4396.67	-50.0793
146.5	-4345.4	-50.1099
146.6	-4323.12	-50.2625
146.7	-4320.37	-50.0488
146.8	-4296.26	-50.0793
146.9	-4291.69	-50.2319
147	-4284.06	-50.1404
147.1	-4253.85	-50.1099
147.2	-4269.41	-50.2319
147.3	-4295.65	-50.2014
147.4	-4314.88	-50.0488
147.5	-4343.26	-50.2319
147.6	-4347.23	-50.2014
147.7	-4360.96	-50.0793
147.8	-4358.83	-50.0793
147.9	-4346.01	-50.2625
148	-4330.14	-50.2319
148.1	-4323.73	-50.1099
148.2	-4319.15	-50.0488
148.3	-4315.8	-50.1709
148.4	-4326.17	-50.2625
148.5	-4346.01	-50.2625
148.6	-4357.91	-50.2014
148.7	-4391.17	-50.2014
148.8	-4411.93	-50.1404
148.9	-4396.67	-50.1099
149	-4349.37	-50.0793
149.1	-4293.82	-50.2014
149.2	-4269.1	-50.2014
149.3	-4306.64	-50.2319
149.4	-4342.04	-50.2319
149.5	-4356.38	-50.1099
149.6	-4376.83	-50.0488
149.7	-4387.21	-50.2319
149.8	-4431.15	-50.1404
149.9	-4457.4	-50.1404
150	-4441.53	-50.2014
150.1	-4427.8	-50.2014
150.2	-4408.87	-50.1709
150.3	-4382.32	-50.1099
150.4	-4356.08	-55.0537
150.5	-4429.32	-55.1758
150.6	-4634.7	-55.2063
150.7	-4733.58	-55.0842
150.8	-4760.74	-55.1453
150.9	-4773.25	-55.2368
151	-4767.46	-55.0537
151.1	-4764.71	-55.2063
151.2	-4783.94	-55.2063
151.3	-4771.42	-55.1147
151.4	-4753.42	-55.1758
151.5	-4733.89	-55.2368
151.6	-4754.94	-55.0842
151.7	-4789.73	-55.1453
151.8	-4812.62	-55.2063
151.9	-4836.73	-55.1453
152	-4844.67	-55.0842
152.1	-4857.18	-55.1147
152.2	-4854.43	-55.2063
152.3	-4827.88	-55.0842
152.4	-4806.52	-55.1453
152.5	-4808.04	-55.1453
152.6	-4833.68	-55.0537
152.7	-4855.04	-55.1147
152.8	-4865.11	-55.2368
152.9	-4871.22	-55.0842
153	-4880.68	-55.2673
153.1	-4872.44	-55.0842
153.2	-4868.16	-55.1147
153.3	-4836.43	-55.1453
153.4	-4800.11	-55.2673
153.5	-4774.48	-55.0537
153.6	-4758.91	-55.0842
153.7	-4784.85	-55.1758
153.8	-4801.64	-55.2368
153.9	-4795.23	-55.0537
154	-4817.5	-55.1147
154.1	-4832.46	-55.0537
154.2	-4818.73	-55.2368
154.3	-4790.95	-55.2368
154.4	-4773.25	-55.1758
154.5	-4725.95	-55.0537
154.6	-4713.44	-55.1453
154.7	-4742.43	-55.1758
154.8	-4747.31	-55.1758
154.9	-4747.92	-55.0537
155	-4746.4	-55.1453
155.1	-4757.39	-55.1453
155.2	-4802.25	-55.0537
155.3	-4810.18	-55.1758
155.4	-4794.01	-55.1453
155.5	-4788.51	-55.0842
155.6	-4782.41	-55.1758
155.7	-4786.07	-55.1147
155.8	-4772.34	-55.2368
155.9	-4747.31	-55.1147
156	-4758.3	-55.1453
156.1	-4771.73	-55.2063
156.2	-4745.48	-55.0842
156.3	-4724.12	-55.2368
156.4	-4729.92	-55.1147
156.5	-4719.54	-55.1453
156.6	-4677.73	-55.2063
156.7	-4692.69	-55.2368
156.8	-4747.31	-55.0842
156.9	-4763.49	-55.1453
157	-4748.84	-55.2063
157.1	-4739.99	-55.2673
157.2	-4712.83	-55.1147
157.3	-4723.51	-55.0842
157.4	-4750.98	-55.0537
157.5	-4722.6	-55.2368
157.6	-4712.83	-55.0537
157.7	-4722.9	-55.1147
157.8	-4710.39	-55.2063
157.9	-4700.62	-55.0842
158	-4692.08	-55.2063
158.1	-4679.87	-55.0842
158.2	-4706.12	-55.2368
158.3	-4706.73	-55.0842
158.4	-4687.81	-55.2063
158.5	-4658.81	-55.0842
158.6	-4635.93	-55.1147
158.7	-4638.06	-55.2063
158.8	-4653.32	-55.1453
158.9	-4664.61	-55.0842
159	-4670.41	-55.2063
159.1	-4647.83	-55.1147
159.2	-4627.69	-55.1453
159.3	-4646.61	-55.0842
159.4	-4690.86	-55.0842
159.5	-4712.83	-55.2063
159.6	-4696.66	-55.0842
159.7	-4664.61	-55.2673
159.8	-4628.3	-55.0537
159.9	-4571.53	-55.2368
160	-4548.34	-55.1147
160.1	-4571.84	-55.2673
160.2	-4591.06	-60.0586
160.3	-4641.72	-60.2112
160.4	-4832.46	-60.1196
160.5	-4965.21	-60.1501
160.6	-5025.94	-60.1196
160.7	-5051.57	-60.1196
160.8	-5070.5	-60.0891
160.9	-5102.54	-60.2112
161	-5127.26	-60.0586
161.1	-5132.75	-60.2112
161.2	-5114.75	-60.0586
161.3	-5127.26	-60.1196
161.4	-5135.19	-60.1501
161.5	-5122.07	-60.0586
161.6	-5162.05	-60.2112
161.7	-5202.33	-60.0586
161.8	-5227.05	-60.2417
161.9	-5242.92	-60.0891
162	-5262.45	-60.2417
162.1	-5275.57	-60.0891
162.2	-5267.33	-60.1807
162.3	-5289.92	-60.1196
162.4	-5308.53	-60.0891
162.5	-5254.82	-60.1807
162.6	-5195.31	-60.0891
162.7	-5168.46	-60.2112
162.8	-5144.96	-60.1501
162.9	-5168.76	-60.1501
163	-5222.47	-60.1501
163.1	-5246.58	-60.0281
163.2	-5238.65	-60.1807
163.3	-5201.11	-60.1196
163.4	-5178.22	-60.0891
163.5	-5176.39	-60.2417
163.6	-5230.71	-60.1501
163.7	-5281.98	-60.1196
163.8	-5293.58	-60.2417
163.9	-5269.47	-60.1196
164	-5240.78	-60.1807
164.1	-5242.31	-60.1196
164.2	-5247.19	-60.0586
164.3	-5238.65	-60.3027
164.4	-5213.62	-60.1196
164.5	-5212.4	-60.0891
164.6	-5245.36	-60.1807
164.7	-5226.44	-60.0891
164.8	-5190.73	-60.1807
164.9	-5182.5	-60.0891
165	-5153.81	-60.2112
165.1	-5145.87	-60.1196
165.2	-5122.38	-60.2417
165.3	-5101.01	-60.0586
165.4	-5117.8	-60.2417
165.5	-5110.17	-60.0891
165.6	-5083.31	-60.2417
165.7	-5092.16	-60.1501
165.8	-5125.73	-60.0891
165.9	-5139.77	-60.1807
166	-5180.36	-60.0891
166.1	-5237.12	-60.2112
166.2	-5255.13	-60.0586
166.3	-5235.9	-60.1807
166.4	-5194.09	-60.1196
166.5	-5152.89	-60.1807
166.6	-5138.55	-60.1196
166.7	-5126.65	-60.1807
166.8	-5107.12	-60.0891
166.9	-5082.7	-60.2112
167	-5066.22	-60.0891
167.1	-5068.97	-60.0586
167.2	-5070.5	-60.2417
167.3	-5106.81	-60.1501
167.4	-5136.11	-60.0891
167.5	-5119.32	-60.2417
167.6	-5073.55	-60.0891
167.7	-5041.5	-60.3027
167.8	-5045.17	-60.0586
167.9	-5030.52	-60.2112
168	-5011.9	-60.1501
168.1	-5008.85	-60.0891
168.2	-5002.44	-60.2112
168.3	-4993.29	-60.1196
168.4	-4978.33	-60.0586
168.5	-4966.13	-60.2417
168.6	-4947.51	-60.1196
168.7	-4939.58	-60.0891
168.8	-4957.89	-60.2417
168.9	-4947.81	-60.0281
169	-4973.14	-60.1807
169.1	-4997.56	-60.1501
169.2	-4965.52	-60.0891
169.3	-4957.89	-60.2112
169.4	-4965.82	-60.0586
169.5	-4984.74	-60.1807
169.6	-5015.26	-60.2112
169.7	-5037.54	-60.1196
169.8	-5058.59	-60.1501
169.9	-5093.69	-60.2417
170	-5105.59	-60.0586
170.1	-5068.97	-60.1807
170.2	-5010.07	-65.1245
170.3	-5015.26	-65.033
170.4	-5192.87	-65.033
170.5	-5405.88	-65.2161
170.6	-5487.67	-65.094
170.7	-5515.14	-65.0635
170.8	-5509.34	-65.2771
170.9	-5490.42	-65.0635
171	-5512.39	-65.094
171.1	-5573.12	-65.2161
171.2	-5609.44	-65.155
171.3	-5642.09	-65.033
171.4	-5652.47	-65.1245
171.5	-5595.09	-65.1855
171.6	-5541.08	-65.033
171.7	-5522.46	-65.2466
171.8	-5527.34	-65.094
171.9	-5546.57	-65.033
172	-5584.41	-65.0635
172.1	-5580.44	-65.2161
172.2	-5521.24	-65.033
172.3	-5419.01	-65.2161
172.4	-5382.08	-65.033
172.5	-5407.71	-65.2161
172.6	-5455.63	-65.094
172.7	-5500.79	-65.0635
172.8	-5493.47	-65.1855
172.9	-5449.83	-65.0635
173	-5411.68	-65.2161
173.1	-5386.66	-65.033
173.2	-5387.27	-65.1855
173.3	-5401.92	-65.094
173.4	-5377.81	-65.1245
173.5	-5354.61	-65.094
173.6	-5375.67	-65.0635
173.7	-5395.51	-65.094
173.8	-5362.85	-65.094
173.9	-5378.11	-65.155
174	-5435.18	-65.0635
174.1	-5454.71	-65.1855
174.2	-5465.39	-65.1245
174.3	-5505.98	-65.094
174.4	-5531.01	-65.155
174.5	-5459.29	-65.0024
174.6	-5390.32	-65.2161
174.7	-5370.18	-65.0635
174.8	-5362.24	-65.094
174.9	-5351.87	-65.2161
175	-5359.8	-65.033
175.1	-5355.83	-65.1855
175.2	-5329.28	-65.0635
175.3	-5336.61	-65.094
175.4	-5351.87	-65.155
175.5	-5362.85	-65.033
175.6	-5360.72	-65.2466
175.7	-5334.17	-65.0024
175.8	-5318.3	-65.2161
175.9	-5344.24	-65.033
176	-5387.88	-65.1245
176.1	-5419.31	-65.0024
176.2	-5447.69	-65.2161
176.3	-5496.22	-65.0635
176.4	-5509.95	-65.155
176.5	-5497.44	-65.0635
176.6	-5466.61	-65.1245
176.7	-5405.27	-65.155
176.8	-5366.52	-65.033
176.9	-5353.39	-65.2161
177	-5359.5	-65.1245
177.1	-5376.89	-65.0635
177.2	-5391.85	-65.2161
177.3	-5377.81	-65.033
177.4	-5379.64	-65.2466
177.5	-5372.31	-65.0024
177.6	-5343.32	-65.1855
177.7	-5349.12	-65.033
177.8	-5321.66	-65.094
177.9	-5334.17	-65.2466
178	-5371.7	-65.155
178.1	-5354.31	-65.094
178.2	-5310.06	-65.155
178.3	-5298.46	-65.0635
178.4	-5291.75	-65.033
178.5	-5280.46	-65.2161
178.6	-5274.66	-65.0635
178.7	-5310.36	-65.1855
178.8	-5347.29	-65.1245
178.9	-5381.47	-65.0635
179	-5417.48	-65.1855
179.1	-5415.34	-65.094
179.2	-5375.37	-65.1855
179.3	-5364.07	-65.094
179.4	-5372.31	-65.094
179.5	-5345.46	-65.1855
179.6	-5368.96	-65.033
179.7	-5454.71	-65.1855
179.8	-5478.21	-65.033
179.9	-5381.77	-65.1855
180	-5325.93	-70.0989
180.1	-5345.15	-70.0684
180.2	-5509.34	-70.1904
180.3	-5722.05	-70.1599
180.4	-5778.5	-70.0378
180.5	-5767.82	-70.0989
180.6	-5758.67	-70.1294
180.7	-5827.03	-70.1294
180.8	-5886.84	-70.0684
180.9	-5881.35	-70.1294
181	-5889.89	-70.2515
181.1	-5883.79	-70.0989
181.2	-5853.58	-70.0684
181.3	-5860.9	-70.0989
181.4	-5857.54	-70.1599
181.5	-5863.95	-70.0684
181.6	-5871.58	-70.1294
181.7	-5850.52	-70.1599
181.8	-5842.29	-70.0684
181.9	-5827.94	-70.0684
182	-5780.64	-70.2209
182.1	-5751.65	-69.9768
182.2	-5769.65	-70.2515
182.3	-5815.73	-70.0378
182.4	-5852.05	-70.1904
182.5	-5834.05	-70.1599
182.6	-5765.99	-70.0073
182.7	-5743.1	-70.1904
182.8	-5760.8	-70.0378
182.9	-5780.94	-70.0989
183	-5773.01	-70.1904
183.1	-5720.52	-70.1294
183.2	-5696.11	-70.1599
183.3	-5746.46	-70.0073
183.4	-5790.41	-70.1904
183.5	-5773.01	-70.0684
183.6	-5750.73	-70.0989
183.7	-5753.78	-70.2209
183.8	-5788.57	-70.1294
183.9	-5794.68	-70.0073
184	-5755.92	-70.2209
184.1	-5733.95	-70.0378
184.2	-5755.92	-70.1294
184.3	-5778.2	-70.1599
184.4	-5775.15	-70.0073
184.5	-5754.7	-70.2209
184.6	-5724.79	-70.0378
184.7	-5712.28	-70.2209
184.8	-5696.11	-70.0378
184.9	-5690.61	-70.1599
185	-5693.97	-70.0989
185.1	-5711.98	-70.0684
185.2	-5759.58	-70.1904
185.3	-5761.72	-70.0684
185.4	-5735.78	-70.0989
185.5	-5769.35	-70.2209
185.6	-5785.52	-70.0684
185.7	-5732.42	-70.0989
185.8	-5701.9	-70.2209
185.9	-5681.46	-70.0073
186	-5659.79	-70.1904
186.1	-5650.02	-70.1599
186.2	-5627.44	-70.0684
186.3	-5606.99	-70.0073
186.4	-5643.31	-70.1904
186.5	-5646.67	-70.0073
186.6	-5596.31	-70.1904
186.7	-5578.31	-70.0989
186.8	-5594.18	-70.1294
186.9	-5563.05	-70.0684
187	-5536.19	-70.1904
187.1	-5566.1	-70.0684
187.2	-5623.17	-70.1904
187.3	-5674.74	-70.0684
187.4	-5636.6	-70.1599
187.5	-5599.67	-70.0989
187.6	-5640.56	-70.2209
187.7	-5638.43	-70.0684
187.8	-5617.68	-70.1599
187.9	-5621.64	-70.1599
188	-5607.3	-70.0378
188.1	-5595.4	-70.0378
188.2	-5598.45	-70.0378
188.3	-5609.74	-70.0378
188.4	-5609.13	-70.0684
188.5	-5567.63	-70.0989
188.6	-5539.25	-70.2209
188.7	-5550.54	-70.1904
188.8	-5549.93	-70.1599
188.9	-5565.19	-70.0073
189	-5566.41	-70.1599
189.1	-5541.69	-70.1599
189.2	-5540.16	-70.0684
189.3	-5534.97	-70.1904
189.4	-5539.25	-70.0378
189.5	-5541.08	-70.1294
189.6	-5545.65	-70.1904
189.7	-5541.38	-70.1294
189.8	-5515.44	-70.0378
189.9	-5518.49	-70.0989
190	-5491.03	-70.1294
190.1	-5446.78	-70.2515
190.2	-5447.08	-75.1343
190.3	-5484.92	-75.0427
190.4	-5640.87	-75.0122
190.5	-5895.08	-75.1953
190.6	-5990.3	-75.1343
190.7	-5931.09	-75.0732
190.8	-5901.18	-75.0122
190.9	-5931.09	-75.0427
191	-5922.85	-75.0732
191.1	-5893.55	-75.1953
191.2	-5872.5	-75.0427
191.3	-5873.72	-75.1038
191.4	-5924.07	-75.1953
191.5	-5920.1	-74.9817
191.6	-5865.78	-75.1343
191.7	-5823.67	-75.1343
191.8	-5848.39	-75.0427
191.9	-5906.68	-75.2258
192	-5874.94	-75.0732
192.1	-5807.8	-75.0732
192.2	-5784.91	-75.1648
192.3	-5802.92	-74.9817
192.4	-5830.38	-75.1648
192.5	-5881.35	-75.1343
192.6	-5934.45	-75.0732
192.7	-5945.13	-75.0122
192.8	-5923.16	-75.1038
192.9	-5885.01	-75.1648
193	-5874.33	-75.1648
193.1	-5879.21	-75.0122
193.2	-5844.42	-75.0122
193.3	-5831.3	-75.0122
193.4	-5823.06	-75.0122
193.5	-5780.64	-75.0732
193.6	-5758.97	-75.0732
193.7	-5758.06	-75.1038
193.8	-5818.18	-75.1343
193.9	-5857.85	-75.2258
194	-5847.78	-75.1343
194.1	-5849	-75.1038
194.2	-5874.94	-75.0427
194.3	-5893.55	-75.1648
194.4	-5874.94	-75.1648
194.5	-5868.23	-75.1648
194.6	-5849.61	-75.0122
194.7	-5845.95	-75.1953
194.8	-5842.59	-75.1343
194.9	-5826.72	-75.0732
195	-5802	-74.9817
195.1	-5781.56	-75.1953
195.2	-5783.08	-75.1343
195.3	-5782.47	-75.0732
195.4	-5832.52	-75.0427
195.5	-5863.65	-75.2258
195.6	-5846.86	-75.0122
195.7	-5832.52	-75.1953
195.8	-5815.12	-75.0122
195.9	-5808.11	-75.1953
196	-5781.56	-75.0427
196.1	-5741.58	-75.0732
196.2	-5720.83	-75.1343
196.3	-5688.78	-75.0732
196.4	-5695.8	-75.0732
196.5	-5734.56	-75.1953
196.6	-5778.2	-75.0122
196.7	-5779.42	-75.0732
196.8	-5794.37	-75.1648
196.9	-5768.74	-75.0732
197	-5742.8	-75.0427
197.1	-5759.28	-75.2258
197.2	-5775.45	-75.0732
197.3	-5752.26	-75.0122
197.4	-5711.36	-75.1343
197.5	-5710.75	-74.9817
197.6	-5719.6	-75.1343
197.7	-5664.67	-75.0427
197.8	-5670.47	-75.1038
197.9	-5743.71	-75.0732
198	-5743.1	-75.1038
198.1	-5708.01	-75.0122
198.2	-5687.87	-75.1953
198.3	-5663.45	-75.0122
198.4	-5636.6	-75.2258
198.5	-5598.14	-75.1343
198.6	-5560.61	-75.0427
198.7	-5583.8	-75.0732
198.8	-5626.53	-75.2258
198.9	-5587.46	-75.0732
199	-5544.43	-75.0427
199.1	-5571.9	-75.1038
199.2	-5602.11	-75.1343
199.3	-5574.04	-75.0122
199.4	-5553.89	-75.1648
199.5	-5568.24	-75.0732
199.6	-5586.55	-75.0427
199.7	-5618.29	-75.1038
199.8	-5645.14	-75.1648
199.9	-5630.19	-75.1038
200	-5610.05	-75.0122
200.1	-5589.29	-75.1343
200.2	-5617.37	-80.0476
200.3	-5687.26	-80.0171
200.4	-5872.8	-80.1697
200.5	-6011.66	-80.1086
200.6	-6068.12	-79.9866
200.7	-6083.07	-80.0781
200.8	-6069.95	-80.1697
200.9	-6034.24	-80.2002
201	-6013.49	-80.0476
201.1	-5981.45	-80.0476
201.2	-5956.73	-80.1697
201.3	-6001.28	-80.0781
201.4	-6019.29	-80.1086
201.5	-5985.72	-80.0781
201.6	-5969.85	-79.9866
201.7	-5989.69	-80.1697
201.8	-6020.2	-80.0476
201.9	-6037.29	-80.0476
202	-6000.06	-79.9866
202.1	-5957.03	-80.1697
202.2	-5962.22	-80.0476
202.3	-5964.66	-80.0476
202.4	-5924.68	-80.0171
202.5	-5906.37	-80.0476
202.6	-5925.6	-80.1392
202.7	-5935.67	-80.2002
202.8	-5935.36	-80.2002
202.9	-5920.1	-80.0171
203	-5888.67	-80.0476
203.1	-5907.59	-80.1392
203.2	-5897.83	-80.2307
203.3	-5858.46	-80.0781
203.4	-5861.82	-80.0476
203.5	-5909.73	-80.1392
203.6	-5901.18	-80.2307
203.7	-5880.74	-80.1697
203.8	-5870.97	-80.1086
203.9	-5864.87	-80.0476
204	-5891.72	-80.1086
204.1	-5904.85	-80.2002
204.2	-5838.93	-80.1697
204.3	-5790.1	-79.9866
204.4	-5846.25	-80.1697
204.5	-5882.26	-80.1086
204.6	-5823.06	-80.0171
204.7	-5773.01	-80.1392
204.8	-5770.87	-80.1392
204.9	-5772.71	-79.9866
205	-5807.8	-80.1697
205.1	-5837.71	-80.1392
205.2	-5855.41	-80.0476
205.3	-5838.01	-80.1086
205.4	-5772.4	-80.2307
205.5	-5730.59	-80.0171
205.6	-5708.31	-80.0476
205.7	-5708.62	-80.1697
205.8	-5748.29	-80.1392
205.9	-5746.15	-80.0476
206	-5740.97	-80.0476
206.1	-5742.19	-79.9866
206.2	-5709.23	-80.0476
206.3	-5644.84	-80.0781
206.4	-5590.21	-80.1697
206.5	-5595.7	-80.1697
206.6	-5618.59	-80.2307
206.7	-5656.13	-80.0476
206.8	-5667.11	-80.0476
206.9	-5676.57	-80.0171
207	-5676.27	-80.1392
207.1	-5674.74	-80.1392
207.2	-5706.48	-80.0476
207.3	-5725.71	-80.1697
207.4	-5740.36	-80.1086
207.5	-5735.47	-80.0171
207.6	-5725.1	-80.2002
207.7	-5727.54	-79.9866
207.8	-5720.52	-80.1086
207.9	-5740.66	-80.1086
208	-5781.86	-80.0476
208.1	-5745.85	-80.2002
208.2	-5693.66	-80.0781
208.3	-5669.56	-80.0476
208.4	-5676.57	-80.2002
208.5	-5664.98	-79.9866
208.6	-5669.56	-80.1086
208.7	-5655.21	-80.0171
208.8	-5609.13	-80.0781
208.9	-5591.43	-80.2002
209	-5583.8	-80.0171
209.1	-5613.1	-80.0781
209.2	-5609.44	-80.2307
209.3	-5566.1	-80.0171
209.4	-5547.49	-80.1392
209.5	-5549.62	-80.2002
209.6	-5568.85	-80.1086
209.7	-5608.83	-79.9866
209.8	-5634.77	-80.0476
