ATF	1.0
7	3     
"AcquisitionMode=Gap Free"
"Comment="
"YTop=10000,1000"
"YBottom=-10000,-1000"
"SweepStartTimesMS=0.000"
"SignalsExported=Im_Scaled,10_mv"
"Signals="	"Im_Scaled"	"10_mv"
"Time (s)"	"Trace #1 (pA)"	"Trace #1 (mV)"
0	1126.4	19.8059
0.1	1122.74	19.7449
0.2	1122.13	19.8059
0.3	1123.96	19.7449
0.4	1126.4	19.6533
0.5	1127.01	19.6838
0.6	1127.32	19.7754
0.7	1130.98	19.7449
0.8	1130.98	19.7449
0.9	1127.62	19.6228
1	1128.23	19.8059
1.1	1128.23	19.7449
1.2	1123.96	19.6533
1.3	1122.13	19.8059
1.4	1124.88	19.7754
1.5	1127.01	19.6228
1.6	1122.13	19.8364
1.7	1118.16	19.5923
1.8	1117.25	19.7144
1.9	1120.3	19.8059
2	1124.27	19.6838
2.1	1122.74	19.6533
2.2	1121.83	19.7449
2.3	1131.29	19.7754
2.4	1136.47	19.6533
2.5	1136.78	19.7754
2.6	1137.7	19.7144
2.7	1134.03	19.6533
2.8	1132.81	19.7449
2.9	1131.29	19.7754
3	1126.1	19.6228
3.1	1126.1	19.8364
3.2	1130.68	19.6838
3.3	1130.68	19.7754
3.4	1126.4	19.7754
3.5	1126.71	19.6838
3.6	1128.54	19.6838
3.7	1128.54	19.8059
3.8	1127.93	19.6533
3.9	1129.46	19.7449
4	1131.59	19.8059
4.1	1133.42	19.6228
4.2	1134.95	19.7449
4.3	1136.78	19.7754
4.4	1131.59	19.6533
4.5	1126.71	19.7754
4.6	1125.18	19.6533
4.7	1121.83	19.7754
4.8	1120.91	19.6533
4.9	1123.96	19.7449
5	1130.07	19.8059
5.1	1130.37	19.6228
5.2	1126.4	19.7754
5.3	1127.01	19.6228
5.4	1130.98	19.7754
5.5	1134.64	19.6838
5.6	1134.34	19.8364
5.7	1136.17	19.5923
5.8	1138.92	19.7449
5.9	1138.31	19.8059
6	1137.08	19.6228
6.1	1141.05	19.8059
6.2	1142.58	19.6228
6.3	1138.61	19.7754
6.4	1134.95	19.7754
6.5	1131.29	19.6228
6.6	1128.23	19.8364
6.7	1130.98	19.6228
6.8	1131.9	19.7144
6.9	1130.37	19.7449
7	1134.34	19.7144
7.1	1140.75	19.7449
7.2	1140.44	19.6838
7.3	1136.47	19.7144
7.4	1138.31	19.7449
7.5	1140.75	19.7449
7.6	1139.83	19.7144
7.7	1138.61	19.7449
7.8	1137.7	19.7144
7.9	1139.22	19.6838
8	1141.97	19.7754
8.1	1142.58	19.6838
8.2	1146.24	19.7144
8.3	1147.16	19.7449
8.4	1147.16	19.6533
8.5	1145.32	19.7449
8.6	1141.05	19.6533
8.7	1139.53	19.7449
8.8	1141.97	19.6838
8.9	1144.41	19.6228
9	1142.88	19.8059
9.1	1142.88	19.6838
9.2	1141.66	19.7754
9.3	1141.66	19.6228
9.4	1139.22	19.7754
9.5	1137.7	19.7754
9.6	1139.53	19.6838
9.7	1142.27	19.8059
9.8	1143.19	19.6533
9.9	1140.44	19.8059
10	1138.92	19.7144
10.1	1134.95	19.7449
10.2	1135.56	14.7095
10.3	1033.94	14.74
10.4	744.324	14.801
10.5	608.521	14.679
10.6	606.079	14.7705
10.7	603.638	14.6179
10.8	601.501	14.74
10.9	603.333	14.801
11	604.248	14.679
11.1	605.469	14.7095
11.2	606.995	14.7095
11.3	605.774	14.7095
11.4	604.553	14.7705
11.5	603.638	14.6484
11.6	603.638	14.7705
11.7	606.384	14.6484
11.8	606.079	14.7705
11.9	607.605	14.6484
12	609.131	14.7095
12.1	610.657	14.7095
12.2	610.352	14.7095
12.3	610.657	14.74
12.4	609.131	14.7705
12.5	607.605	14.74
12.6	607.3	14.6179
12.7	606.689	14.801
12.8	606.079	14.6484
12.9	606.384	14.7705
13	607.91	14.801
13.1	607.91	14.6179
13.2	607.605	14.7705
13.3	609.436	14.8315
13.4	611.572	14.6484
13.5	610.046	14.7705
13.6	608.215	14.7095
13.7	608.521	14.7705
13.8	608.826	14.7705
13.9	608.826	14.74
14	609.741	14.6484
14.1	610.657	14.801
14.2	611.267	14.6484
14.3	610.046	14.801
14.4	608.521	14.5874
14.5	606.995	14.7705
14.6	610.657	14.5874
14.7	611.572	14.7705
14.8	610.352	14.7095
14.9	611.572	14.74
15	612.793	14.7705
15.1	610.962	14.7095
15.2	609.741	14.7705
15.3	609.436	14.74
15.4	611.877	14.6484
15.5	611.572	14.7705
15.6	610.657	14.679
15.7	609.131	14.74
15.8	610.046	14.679
15.9	611.572	14.74
16	612.183	14.6179
16.1	610.352	14.7705
16.2	609.741	14.5874
16.3	609.131	14.801
16.4	610.657	14.6179
16.5	609.741	14.7705
16.6	607.3	14.7705
16.7	606.384	14.6179
16.8	606.689	14.7705
16.9	608.215	14.7095
17	608.521	14.6179
17.1	608.521	14.7705
17.2	610.352	14.74
17.3	612.488	14.6179
17.4	611.267	14.7705
17.5	611.267	14.6179
17.6	609.741	14.7705
17.7	609.131	14.6179
17.8	610.962	14.7705
17.9	612.793	14.801
18	612.488	14.6179
18.1	611.267	14.801
18.2	610.657	14.6484
18.3	610.962	14.74
18.4	610.962	14.74
18.5	609.436	14.6179
18.6	609.741	14.7705
18.7	608.826	14.6484
18.8	608.826	14.7705
18.9	607.91	14.6484
19	607.91	14.801
19.1	608.826	14.6484
19.2	610.657	14.8315
19.3	610.046	14.7095
19.4	609.131	14.679
19.5	609.131	14.8621
19.6	610.352	14.6179
19.7	611.267	14.8315
19.8	610.046	14.679
19.9	609.436	14.7705
20	608.215	14.679
20.1	607.605	14.74
20.2	608.826	9.67407
20.3	531.921	9.64355
20.4	244.141	9.79614
20.5	74.1577	9.76563
20.6	66.8335	9.64355
20.7	66.8335	9.79614
20.8	65.918	9.76563
20.9	65.918	9.64355
21	65.6128	9.67407
21.1	65.6128	9.73511
21.2	65.918	9.73511
21.3	66.2231	9.67407
21.4	66.2231	9.73511
21.5	65.918	9.64355
21.6	65.918	9.79614
21.7	65.3076	9.67407
21.8	65.6128	9.61304
21.9	65.0024	9.79614
22	65.6128	9.61304
22.1	65.3076	9.82666
22.2	65.918	9.61304
22.3	65.0024	9.79614
22.4	65.3076	9.70459
22.5	65.3076	9.73511
22.6	65.6128	9.61304
22.7	65.3076	9.76563
22.8	65.6128	9.73511
22.9	65.6128	9.61304
23	65.6128	9.76563
23.1	65.918	9.67407
23.2	65.3076	9.82666
23.3	65.6128	9.67407
23.4	65.6128	9.73511
23.5	65.0024	9.79614
23.6	65.3076	9.61304
23.7	65.6128	9.73511
23.8	65.0024	9.76563
23.9	65.6128	9.67407
24	65.3076	9.73511
24.1	65.3076	9.73511
24.2	65.6128	9.64355
24.3	65.6128	9.76563
24.4	65.3076	9.73511
24.5	65.6128	9.67407
24.6	65.0024	9.76563
24.7	65.0024	9.73511
24.8	65.3076	9.61304
24.9	65.3076	9.76563
25	65.0024	9.76563
25.1	64.6973	9.58252
25.2	65.0024	9.79614
25.3	64.6973	9.82666
25.4	65.0024	9.58252
25.5	65.3076	9.73511
25.6	64.6973	9.79614
25.7	65.0024	9.64355
25.8	65.0024	9.79614
25.9	65.0024	9.73511
26	65.0024	9.64355
26.1	65.0024	9.79614
26.2	64.3921	9.76563
26.3	64.3921	9.76563
26.4	64.6973	9.64355
26.5	64.6973	9.64355
26.6	65.0024	9.82666
26.7	64.6973	9.70459
26.8	65.3076	9.64355
26.9	64.6973	9.73511
27	64.6973	9.64355
27.1	64.3921	9.73511
27.2	64.3921	9.73511
27.3	64.6973	9.67407
27.4	64.0869	9.76563
27.5	64.3921	9.61304
27.6	64.0869	9.82666
27.7	64.3921	9.58252
27.8	64.0869	9.79614
27.9	64.3921	9.67407
28	64.0869	9.79614
28.1	64.3921	9.64355
28.2	63.7817	9.73511
28.3	64.0869	9.64355
28.4	63.7817	9.79614
28.5	64.0869	9.58252
28.6	64.0869	9.79614
28.7	64.3921	9.64355
28.8	64.0869	9.79614
28.9	63.7817	9.73511
29	63.7817	9.67407
29.1	63.7817	9.79614
29.2	63.7817	9.64355
29.3	63.4766	9.79614
29.4	63.7817	9.64355
29.5	63.4766	9.73511
29.6	63.7817	9.67407
29.7	63.4766	9.76563
29.8	63.4766	9.70459
29.9	63.4766	9.79614
30	64.0869	9.61304
30.1	63.4766	9.82666
30.2	63.1714	4.63867
30.3	-5.18799	4.79126
30.4	-281.982	4.79126
30.5	-457.458	4.73022
30.6	-466.919	4.79126
30.7	-466.003	4.66919
30.8	-468.14	4.73022
30.9	-468.75	4.85229
31	-468.75	4.73022
31.1	-469.055	4.69971
31.2	-468.445	4.76074
31.3	-467.224	4.82178
31.4	-467.224	4.69971
31.5	-467.529	4.66919
31.6	-467.529	4.79126
31.7	-468.14	4.73022
31.8	-468.445	4.66919
31.9	-468.14	4.82178
32	-468.14	4.76074
32.1	-469.971	4.63867
32.2	-471.497	4.76074
32.3	-467.834	4.73022
32.4	-464.478	4.73022
32.5	-467.224	4.79126
32.6	-469.666	4.73022
32.7	-470.581	4.66919
32.8	-470.276	4.85229
32.9	-468.75	4.66919
33	-469.36	4.76074
33.1	-470.276	4.79126
33.2	-470.581	4.60815
33.3	-470.886	4.79126
33.4	-470.276	4.82178
33.5	-468.75	4.60815
33.6	-469.055	4.76074
33.7	-469.971	4.82178
33.8	-470.886	4.69971
33.9	-470.581	4.73022
34	-469.971	4.82178
34.1	-469.666	4.76074
34.2	-469.971	4.63867
34.3	-470.886	4.79126
34.4	-470.276	4.82178
34.5	-467.834	4.63867
34.6	-466.919	4.69971
34.7	-469.055	4.82178
34.8	-470.581	4.82178
34.9	-469.666	4.82178
35	-468.75	4.73022
35.1	-469.055	4.66919
35.2	-470.276	4.69971
35.3	-471.191	4.73022
35.4	-472.412	4.85229
35.5	-470.886	4.79126
35.6	-468.14	4.79126
35.7	-469.36	4.82178
35.8	-469.666	4.73022
35.9	-470.886	4.66919
36	-470.886	4.66919
36.1	-468.14	4.79126
36.2	-467.834	4.85229
36.3	-467.834	4.79126
36.4	-466.614	4.79126
36.5	-468.14	4.66919
36.6	-469.971	4.66919
36.7	-470.276	4.88281
36.8	-469.971	4.66919
36.9	-470.886	4.76074
37	-471.191	4.82178
37.1	-469.055	4.76074
37.2	-467.834	4.79126
37.3	-468.75	4.76074
37.4	-467.834	4.76074
37.5	-468.75	4.73022
37.6	-471.497	4.79126
37.7	-471.191	4.85229
37.8	-469.971	4.63867
37.9	-469.055	4.66919
38	-469.36	4.82178
38.1	-470.581	4.79126
38.2	-471.497	4.76074
38.3	-471.802	4.63867
38.4	-472.107	4.82178
38.5	-471.497	4.82178
38.6	-471.802	4.73022
38.7	-472.107	4.73022
38.8	-471.497	4.79126
38.9	-471.191	4.73022
39	-472.107	4.76074
39.1	-474.548	4.82178
39.2	-473.022	4.73022
39.3	-472.107	4.76074
39.4	-472.717	4.79126
39.5	-472.107	4.66919
39.6	-471.191	4.69971
39.7	-471.497	4.85229
39.8	-473.022	4.76074
39.9	-472.412	4.66919
40	-470.276	4.85229
40.1	-469.666	4.82178
40.2	-468.445	-0.305176
40.3	-497.742	-0.305176
40.4	-728.455	-0.213623
40.5	-961.304	-0.183105
40.6	-997.62	-0.244141
40.7	-995.483	-0.305176
40.8	-995.789	-0.183105
40.9	-994.263	-0.274658
41	-995.178	-0.305176
41.1	-992.126	-0.244141
41.2	-989.685	-0.335693
41.3	-987.854	-0.213623
41.4	-985.107	-0.213623
41.5	-984.192	-0.335693
41.6	-983.276	-0.244141
41.7	-987.244	-0.12207
41.8	-989.99	-0.213623
41.9	-989.075	-0.366211
42	-987.244	-0.274658
42.1	-986.328	-0.213623
42.2	-988.464	-0.183105
42.3	-989.99	-0.183105
42.4	-989.38	-0.213623
42.5	-988.159	-0.152588
42.6	-988.77	-0.213623
42.7	-988.159	-0.305176
42.8	-987.549	-0.335693
42.9	-984.802	-0.244141
43	-983.276	-0.152588
43.1	-983.276	-0.183105
43.2	-984.192	-0.244141
43.3	-987.549	-0.335693
43.4	-988.77	-0.244141
43.5	-988.464	-0.152588
43.6	-989.38	-0.213623
43.7	-989.685	-0.244141
43.8	-988.464	-0.213623
43.9	-989.38	-0.305176
44	-991.821	-0.305176
44.1	-991.516	-0.366211
44.2	-992.126	-0.335693
44.3	-989.99	-0.274658
44.4	-987.244	-0.244141
44.5	-987.854	-0.183105
44.6	-986.023	-0.213623
44.7	-988.77	-0.274658
44.8	-992.737	-0.274658
44.9	-989.075	-0.183105
45	-990.906	-0.183105
45.1	-993.652	-0.366211
45.2	-986.328	-0.244141
45.3	-980.53	-0.213623
45.4	-983.276	-0.366211
45.5	-986.328	-0.274658
45.6	-985.107	-0.244141
45.7	-984.192	-0.152588
45.8	-981.445	-0.183105
45.9	-980.225	-0.244141
46	-982.361	-0.305176
46.1	-984.802	-0.366211
46.2	-985.413	-0.305176
46.3	-985.413	-0.213623
46.4	-983.582	-0.152588
46.5	-984.192	-0.183105
46.6	-986.023	-0.213623
46.7	-987.244	-0.152588
46.8	-986.938	-0.274658
46.9	-988.159	-0.305176
47	-984.802	-0.335693
47.1	-980.225	-0.305176
47.2	-982.666	-0.213623
47.3	-986.328	-0.244141
47.4	-988.464	-0.183105
47.5	-988.464	-0.183105
47.6	-988.77	-0.183105
47.7	-984.802	-0.244141
47.8	-980.225	-0.366211
47.9	-984.497	-0.305176
48	-986.938	-0.244141
48.1	-983.887	-0.152588
48.2	-980.225	-0.183105
48.3	-982.971	-0.274658
48.4	-990.906	-0.305176
48.5	-992.126	-0.274658
48.6	-990.906	-0.305176
48.7	-988.77	-0.335693
48.8	-984.802	-0.274658
48.9	-985.413	-0.213623
49	-988.159	-0.213623
49.1	-989.685	-0.183105
49.2	-988.159	-0.366211
49.3	-985.107	-0.305176
49.4	-985.718	-0.213623
49.5	-986.633	-0.152588
49.6	-986.633	-0.213623
49.7	-984.802	-0.305176
49.8	-984.802	-0.305176
49.9	-984.802	-0.274658
50	-987.854	-0.183105
50.1	-989.99	-0.305176
50.2	-992.126	-5.31006
50.3	-1019.9	-5.21851
50.4	-1247.25	-5.15747
50.5	-1461.49	-5.12695
50.6	-1490.78	-5.31006
50.7	-1488.65	-5.27954
50.8	-1487.43	-5.15747
50.9	-1488.34	-5.15747
51	-1484.68	-5.12695
51.1	-1484.68	-5.27954
51.2	-1485.29	-5.24902
51.3	-1479.19	-5.24902
51.4	-1487.12	-5.09644
51.5	-1489.56	-5.15747
51.6	-1484.99	-5.18799
51.7	-1483.15	-5.31006
51.8	-1482.24	-5.21851
51.9	-1484.99	-5.15747
52	-1487.43	-5.18799
52.1	-1484.68	-5.27954
52.2	-1478.88	-5.27954
52.3	-1478.58	-5.27954
52.4	-1479.19	-5.12695
52.5	-1480.41	-5.18799
52.6	-1484.99	-5.18799
52.7	-1485.9	-5.18799
52.8	-1477.66	-5.21851
52.9	-1471.25	-5.24902
53	-1471.86	-5.27954
53.1	-1470.34	-5.21851
53.2	-1464.84	-5.18799
53.3	-1462.71	-5.27954
53.4	-1465.45	-5.27954
53.5	-1468.51	-5.21851
53.6	-1468.81	-5.12695
53.7	-1465.76	-5.24902
53.8	-1464.54	-5.31006
53.9	-1467.29	-5.18799
54	-1472.78	-5.15747
54.1	-1477.36	-5.31006
54.2	-1474.61	-5.21851
54.3	-1476.44	-5.21851
54.4	-1478.58	-5.34058
54.5	-1473.08	-5.12695
54.6	-1474.3	-5.18799
54.7	-1479.19	-5.34058
54.8	-1475.52	-5.21851
54.9	-1466.06	-5.21851
55	-1464.23	-5.21851
55.1	-1472.17	-5.31006
55.2	-1480.1	-5.15747
55.3	-1481.32	-5.12695
55.4	-1474	-5.27954
55.5	-1475.83	-5.27954
55.6	-1485.29	-5.21851
55.7	-1491.39	-5.12695
55.8	-1491.09	-5.21851
55.9	-1492.31	-5.31006
56	-1493.53	-5.18799
56.1	-1492.92	-5.18799
56.2	-1487.43	-5.21851
56.3	-1477.36	-5.27954
56.4	-1474.91	-5.15747
56.5	-1477.05	-5.27954
56.6	-1475.52	-5.31006
56.7	-1490.48	-5.15747
56.8	-1499.02	-5.21851
56.9	-1493.23	-5.24902
57	-1489.87	-5.21851
57.1	-1490.48	-5.34058
57.2	-1483.76	-5.24902
57.3	-1481.02	-5.18799
57.4	-1480.41	-5.12695
57.5	-1479.8	-5.12695
57.6	-1484.38	-5.18799
57.7	-1485.6	-5.34058
57.8	-1480.71	-5.31006
57.9	-1478.58	-5.15747
58	-1485.6	-5.12695
58.1	-1487.12	-5.24902
58.2	-1479.8	-5.27954
58.3	-1476.44	-5.15747
58.4	-1475.52	-5.15747
58.5	-1480.41	-5.27954
58.6	-1484.68	-5.27954
58.7	-1489.87	-5.12695
58.8	-1489.26	-5.27954
58.9	-1492.31	-5.27954
59	-1494.14	-5.21851
59.1	-1487.73	-5.18799
59.2	-1484.68	-5.12695
59.3	-1489.26	-5.21851
59.4	-1492.61	-5.27954
59.5	-1502.69	-5.27954
59.6	-1508.79	-5.24902
59.7	-1500.85	-5.12695
59.8	-1494.45	-5.24902
59.9	-1491.09	-5.34058
60	-1491.09	-5.31006
60.1	-1497.8	-5.34058
60.2	-1499.33	-10.2539
60.3	-1578.37	-10.1318
60.4	-1835.02	-10.1013
60.5	-1972.96	-10.1013
60.6	-1980.59	-10.2539
60.7	-1978.15	-10.2539
60.8	-1979.06	-10.1318
60.9	-1979.37	-10.1318
61	-1972.66	-10.1318
61.1	-1963.2	-10.3149
61.2	-1963.5	-10.2234
61.3	-1973.88	-10.1318
61.4	-1977.54	-10.2539
61.5	-1968.08	-10.2234
61.6	-1965.64	-10.1624
61.7	-1976.32	-10.1624
61.8	-1979.68	-10.2539
61.9	-1969.6	-10.3455
62	-1961.06	-10.1624
62.1	-1966.86	-10.1624
62.2	-1974.18	-10.1013
62.3	-1977.23	-10.1318
62.4	-1973.57	-10.2234
62.5	-1971.44	-10.2539
62.6	-1967.77	-10.3455
62.7	-1962.28	-10.2234
62.8	-1964.11	-10.1318
62.9	-1974.79	-10.1624
63	-1972.66	-10.1624
63.1	-1968.99	-10.1624
63.2	-1960.75	-10.2844
63.3	-1947.94	-10.2844
63.4	-1958.92	-10.1624
63.5	-1972.05	-10.1318
63.6	-1960.14	-10.3149
63.7	-1956.18	-10.2234
63.8	-1961.36	-10.1013
63.9	-1962.28	-10.1929
64	-1962.89	-10.2539
64.1	-1959.23	-10.1318
64.2	-1961.36	-10.2844
64.3	-1961.67	-10.1013
64.4	-1961.06	-10.1929
64.5	-1959.23	-10.2539
64.6	-1948.55	-10.1624
64.7	-1948.55	-10.2234
64.8	-1949.16	-10.1318
64.9	-1954.65	-10.2844
65	-1962.59	-10.1624
65.1	-1973.88	-10.1929
65.2	-1977.54	-10.1929
65.3	-1969.6	-10.1624
65.4	-1972.35	-10.1624
65.5	-1979.68	-10.1624
65.6	-1987.92	-10.1318
65.7	-1986.08	-10.2539
65.8	-1975.71	-10.1624
65.9	-1967.47	-10.2844
66	-1960.75	-10.1318
66.1	-1957.09	-10.3149
66.2	-1956.18	-10.1318
66.3	-1959.53	-10.2539
66.4	-1964.11	-10.1318
66.5	-1971.74	-10.2539
66.6	-1975.71	-10.1318
66.7	-1966.55	-10.2234
66.8	-1960.45	-10.1624
66.9	-1952.21	-10.1929
67	-1954.04	-10.2234
67.1	-1968.69	-10.1624
67.2	-1971.74	-10.1929
67.3	-1963.81	-10.3149
67.4	-1960.45	-10.1013
67.5	-1954.96	-10.2844
67.6	-1956.79	-10.1624
67.7	-1962.89	-10.1929
67.8	-1966.55	-10.3149
67.9	-1969.6	-10.1318
68	-1966.25	-10.2539
68.1	-1964.42	-10.1929
68.2	-1956.48	-10.1318
68.3	-1954.04	-10.1318
68.4	-1957.09	-10.2539
68.5	-1952.21	-10.1318
68.6	-1947.94	-10.2234
68.7	-1943.36	-10.1318
68.8	-1944.58	-10.3149
68.9	-1955.57	-10.1318
69	-1957.4	-10.2539
69.1	-1948.85	-10.2539
69.2	-1944.89	-10.1624
69.3	-1953.43	-10.1624
69.4	-1955.57	-10.1929
69.5	-1955.26	-10.2234
69.6	-1958.31	-10.1624
69.7	-1953.74	-10.2844
69.8	-1947.33	-10.1624
69.9	-1950.38	-10.2234
70	-1944.27	-10.3149
70.1	-1932.68	-15.0757
70.2	-1956.18	-15.2283
70.3	-2157.59	-15.2588
70.4	-2383.42	-15.1062
70.5	-2421.88	-15.2283
70.6	-2411.5	-15.3198
70.7	-2388	-15.1672
70.8	-2382.51	-15.1367
70.9	-2392.58	-15.1978
71	-2396.85	-15.2588
71.1	-2394.1	-15.1672
71.2	-2384.64	-15.2588
71.3	-2398.99	-15.1672
71.4	-2398.99	-15.1978
71.5	-2391.05	-15.1978
71.6	-2394.1	-15.1062
71.7	-2392.88	-15.3198
71.8	-2401.12	-15.1062
71.9	-2391.36	-15.2588
72	-2377.93	-15.1672
72.1	-2379.46	-15.2893
72.2	-2385.56	-15.1367
72.3	-2394.1	-15.1367
72.4	-2395.32	-15.2893
72.5	-2403.56	-15.1062
72.6	-2409.36	-15.2283
72.7	-2404.17	-15.1978
72.8	-2403.26	-15.1062
72.9	-2410.58	-15.1367
73	-2417.6	-15.2283
73.1	-2417.6	-15.2893
73.2	-2411.19	-15.1978
73.3	-2409.67	-15.1367
73.4	-2414.25	-15.2588
73.5	-2414.86	-15.1062
73.6	-2421.26	-15.3198
73.7	-2431.03	-15.1367
73.8	-2435.91	-15.1672
73.9	-2431.03	-15.3198
74	-2429.5	-15.1978
74.1	-2431.03	-15.1062
74.2	-2420.65	-15.1367
74.3	-2418.52	-15.1978
74.4	-2428.28	-15.2893
74.5	-2430.73	-15.3198
74.6	-2435.3	-15.1978
74.7	-2442.63	-15.1978
74.8	-2434.39	-15.1672
74.9	-2415.77	-15.1367
75	-2420.04	-15.1367
75.1	-2440.19	-15.1672
75.2	-2445.98	-15.1978
75.3	-2441.71	-15.2588
75.4	-2424.62	-15.2893
75.5	-2414.86	-15.1672
75.6	-2420.96	-15.1367
75.7	-2420.96	-15.1672
75.8	-2415.16	-15.2588
75.9	-2418.21	-15.2893
76	-2439.27	-15.1367
76.1	-2442.32	-15.1367
76.2	-2439.27	-15.2588
76.3	-2449.65	-15.1367
76.4	-2442.63	-15.0757
76.5	-2428.28	-15.3198
76.6	-2414.25	-15.1062
76.7	-2411.8	-15.1062
76.8	-2431.64	-15.2893
76.9	-2454.53	-15.1062
77	-2435.91	-15.1367
77.1	-2416.08	-15.3198
77.2	-2423.1	-15.1978
77.3	-2422.49	-15.1062
77.4	-2414.25	-15.1672
77.5	-2412.11	-15.2893
77.6	-2427.37	-15.1672
77.7	-2446.59	-15.1062
77.8	-2449.95	-15.2893
77.9	-2442.32	-15.2588
78	-2428.89	-15.1367
78.1	-2418.21	-15.1672
78.2	-2412.11	-15.1062
78.3	-2415.47	-15.2283
78.4	-2422.18	-15.3198
78.5	-2408.45	-15.2588
78.6	-2395.94	-15.1672
78.7	-2395.02	-15.1672
78.8	-2410.89	-15.1062
78.9	-2420.35	-15.1672
79	-2425.84	-15.3503
79.1	-2421.57	-15.1672
79.2	-2418.82	-15.1062
79.3	-2432.56	-15.1367
79.4	-2426.76	-15.1062
79.5	-2411.8	-15.1367
79.6	-2405.4	-15.2893
79.7	-2406.62	-15.2893
79.8	-2424.62	-15.1367
79.9	-2437.44	-15.1672
80	-2438.96	-15.1062
80.1	-2435.61	-15.0757
80.2	-2432.56	-20.2332
80.3	-2453.31	-20.2026
80.4	-2628.78	-20.2637
80.5	-2833.86	-20.2332
80.6	-2844.54	-20.2026
80.7	-2822.27	-20.2637
80.8	-2853.09	-20.2942
80.9	-2882.08	-20.2942
81	-2882.39	-20.2026
81.1	-2869.26	-20.1416
81.2	-2850.04	-20.1721
81.3	-2839.36	-20.2026
81.4	-2846.07	-20.3247
81.5	-2863.16	-20.1721
81.6	-2854.61	-20.1111
81.7	-2831.73	-20.2637
81.8	-2822.57	-20.2637
81.9	-2831.42	-20.1111
82	-2837.22	-20.1416
82.1	-2840.27	-20.1721
82.2	-2829.59	-20.1721
82.3	-2803.04	-20.2026
82.4	-2791.75	-20.3552
82.5	-2808.84	-20.2637
82.6	-2841.49	-20.2026
82.7	-2854.61	-20.1721
82.8	-2832.34	-20.1111
82.9	-2817.69	-20.1111
83	-2821.66	-20.1721
83.1	-2831.73	-20.2637
83.2	-2842.41	-20.2637
83.3	-2837.52	-20.2026
83.4	-2832.64	-20.1111
83.5	-2839.97	-20.1111
83.6	-2857.67	-20.2026
83.7	-2850.34	-20.2637
83.8	-2824.4	-20.2637
83.9	-2836.61	-20.1721
84	-2845.76	-20.1111
84.1	-2836.61	-20.2332
84.2	-2839.97	-20.3247
84.3	-2843.93	-20.1111
84.4	-2847.9	-20.1111
84.5	-2845.46	-20.1721
84.6	-2841.49	-20.2942
84.7	-2835.69	-20.2942
84.8	-2831.73	-20.2332
84.9	-2828.06	-20.1721
85	-2829.28	-20.0806
85.1	-2821.04	-20.1416
85.2	-2808.84	-20.3247
85.3	-2801.51	-20.2026
85.4	-2817.38	-20.1416
85.5	-2815.86	-20.1721
85.6	-2805.48	-20.1111
85.7	-2793.58	-20.1111
85.8	-2792.97	-20.1721
85.9	-2815.55	-20.2637
86	-2826.54	-20.2942
86.1	-2811.28	-20.2026
86.2	-2803.65	-20.1416
86.3	-2820.43	-20.1111
86.4	-2820.43	-20.2942
86.5	-2811.89	-20.2026
86.6	-2813.72	-20.1111
86.7	-2807.31	-20.2026
86.8	-2813.11	-20.2942
86.9	-2812.5	-20.1721
87	-2808.84	-20.1111
87.1	-2817.38	-20.3247
87.2	-2821.66	-20.1721
87.3	-2818.6	-20.1416
87.4	-2839.36	-20.2637
87.5	-2843.32	-20.1111
87.6	-2836	-20.1416
87.7	-2827.76	-20.2026
87.8	-2834.17	-20.1721
87.9	-2857.06	-20.1416
88	-2859.8	-20.2026
88.1	-2839.36	-20.2026
88.2	-2827.15	-20.1416
88.3	-2819.82	-20.2332
88.4	-2807.62	-20.1721
88.5	-2811.58	-20.2942
88.6	-2807.31	-20.1416
88.7	-2807.92	-20.2637
88.8	-2823.79	-20.1416
88.9	-2838.13	-20.2637
89	-2841.8	-20.1721
89.1	-2824.4	-20.1111
89.2	-2814.33	-20.2942
89.3	-2812.5	-20.2332
89.4	-2815.86	-20.1416
89.5	-2830.2	-20.1111
89.6	-2843.02	-20.2637
89.7	-2843.63	-20.2332
89.8	-2843.02	-20.1416
89.9	-2840.88	-20.0806
90	-2839.05	-20.1416
90.1	-2846.68	-25.116
90.2	-2841.8	-25.1465
90.3	-2977.6	-25.2991
90.4	-3183.9	-25.238
90.5	-3225.4	-25.116
90.6	-3224.79	-25.177
90.7	-3234.56	-25.116
90.8	-3231.81	-25.2075
90.9	-3233.95	-25.2686
91	-3231.81	-25.2686
91.1	-3223.88	-25.3296
91.2	-3226.01	-25.238
91.3	-3221.13	-25.116
91.4	-3208.31	-25.116
91.5	-3193.36	-25.2075
91.6	-3190.61	-25.2991
91.7	-3200.99	-25.116
91.8	-3174.44	-25.238
91.9	-3146.97	-25.2686
92	-3156.13	-25.2075
92.1	-3148.19	-25.1465
92.2	-3145.75	-25.1465
92.3	-3168.95	-25.2686
92.4	-3184.81	-25.238
92.5	-3193.05	-25.177
92.6	-3204.35	-25.116
92.7	-3209.23	-25.2075
92.8	-3188.17	-25.2991
92.9	-3164.37	-25.238
93	-3168.33	-25.177
93.1	-3186.95	-25.116
93.2	-3195.19	-25.1465
93.3	-3194.27	-25.3601
93.4	-3215.64	-25.238
93.5	-3229.37	-25.1465
93.6	-3220.21	-25.177
93.7	-3207.4	-25.1465
93.8	-3203.74	-25.116
93.9	-3195.8	-25.177
94	-3217.77	-25.1465
94.1	-3228.76	-25.116
94.2	-3225.1	-25.116
94.3	-3229.37	-25.177
94.4	-3220.21	-25.1465
94.5	-3203.13	-25.116
94.6	-3207.7	-25.2075
94.7	-3189.39	-25.238
94.8	-3181.76	-25.2686
94.9	-3197.02	-25.3296
95	-3202.51	-25.2686
95.1	-3203.43	-25.238
95.2	-3196.72	-25.2686
95.3	-3206.18	-25.2991
95.4	-3202.82	-25.2991
95.5	-3190.31	-25.2991
95.6	-3191.22	-25.2686
95.7	-3186.34	-25.116
95.8	-3153.99	-25.1465
95.9	-3119.81	-25.177
96	-3137.51	-25.1465
96.1	-3190.31	-25.2991
96.2	-3220.83	-25.3296
96.3	-3228.76	-25.1465
96.4	-3220.21	-25.116
96.5	-3197.63	-25.1465
96.6	-3190	-25.2686
96.7	-3184.81	-25.238
96.8	-3187.26	-25.2686
96.9	-3183.29	-25.177
97	-3193.97	-25.1465
97.1	-3200.68	-25.1465
97.2	-3177.8	-25.177
97.3	-3183.9	-25.116
97.4	-3200.99	-25.1465
97.5	-3208.62	-25.1465
97.6	-3203.43	-25.116
97.7	-3196.11	-25.116
97.8	-3184.81	-25.2075
97.9	-3155.52	-25.177
98	-3124.08	-25.1465
98.1	-3133.85	-25.2075
98.2	-3170.47	-25.116
98.3	-3185.73	-25.116
98.4	-3182.07	-25.2075
98.5	-3198.85	-25.1465
98.6	-3212.89	-25.0854
98.7	-3217.77	-25.1465
98.8	-3211.06	-25.2686
98.9	-3191.53	-25.238
99	-3183.9	-25.2686
99.1	-3178.41	-25.2686
99.2	-3165.59	-25.2991
99.3	-3168.33	-25.2075
99.4	-3175.05	-25.116
99.5	-3140.26	-25.238
99.6	-3104.86	-25.2991
99.7	-3128.66	-25.2075
99.8	-3152.47	-25.2075
99.9	-3161.32	-25.116
100	-3172.91	-25.116
100.1	-3173.22	-30.2124
100.2	-3196.11	-30.2734
100.3	-3342.9	-30.2429
100.4	-3505.55	-30.1819
100.5	-3504.33	-30.1514
100.6	-3486.33	-30.0598
100.7	-3495.79	-30.0598
100.8	-3487.85	-30.1208
100.9	-3475.34	-30.0903
101	-3475.04	-30.0903
101.1	-3461.91	-30.0903
101.2	-3419.19	-30.1208
101.3	-3393.86	-30.1208
101.4	-3383.79	-30.0598
101.5	-3368.53	-30.1514
101.6	-3399.66	-30.0903
101.7	-3436.89	-30.0598
101.8	-3425.6	-30.0903
101.9	-3438.72	-30.0903
102	-3450.01	-30.0903
102.1	-3439.94	-30.1208
102.2	-3435.97	-30.2124
102.3	-3434.45	-30.2429
102.4	-3412.78	-30.2124
102.5	-3392.64	-30.2734
102.6	-3417.36	-30.1208
102.7	-3450.32	-30.0903
102.8	-3447.27	-30.0903
102.9	-3433.23	-30.2429
103	-3421.94	-30.1208
103.1	-3405.15	-30.0903
103.2	-3406.07	-30.304
103.3	-3397.52	-30.1514
103.4	-3349.61	-30.0598
103.5	-3324.28	-30.2124
103.6	-3336.79	-30.2734
103.7	-3356.63	-30.1208
103.8	-3353.58	-30.1208
103.9	-3331.6	-30.2124
104	-3316.96	-30.2734
104.1	-3303.53	-30.2124
104.2	-3287.96	-30.1514
104.3	-3284.3	-30.0903
104.4	-3287.66	-30.0903
104.5	-3302	-30.1819
104.6	-3281.25	-30.2734
104.7	-3236.39	-30.2734
104.8	-3233.64	-30.1819
104.9	-3275.15	-30.0903
105	-3294.37	-30.0903
105.1	-3281.25	-30.1819
105.2	-3276.06	-30.1819
105.3	-3275.45	-30.0598
105.4	-3276.37	-30.1819
105.5	-3267.21	-30.2429
105.6	-3266.91	-30.0903
105.7	-3288.88	-30.0903
105.8	-3288.88	-30.2429
105.9	-3279.72	-30.2734
106	-3289.49	-30.1208
106.1	-3310.24	-30.0293
106.2	-3312.38	-30.2124
106.3	-3297.73	-30.2429
106.4	-3291.02	-30.1514
106.5	-3301.39	-30.1208
106.6	-3325.2	-30.0903
106.7	-3337.1	-30.1819
106.8	-3327.64	-30.304
106.9	-3320.62	-30.1819
107	-3298.34	-30.0598
107.1	-3296.2	-30.1208
107.2	-3299.87	-30.2429
107.3	-3280.33	-30.2124
107.4	-3275.45	-30.1819
107.5	-3293.76	-30.1208
107.6	-3309.33	-30.0903
107.7	-3340.15	-30.1208
107.8	-3349.91	-30.304
107.9	-3324.58	-30.1819
108	-3323.06	-30.0903
108.1	-3352.36	-30.2124
108.2	-3354.49	-30.2429
108.3	-3331.91	-30.0903
108.4	-3321.53	-30.0903
108.5	-3327.03	-30.2124
108.6	-3338.01	-30.2124
108.7	-3347.47	-30.0903
108.8	-3342.9	-30.304
108.9	-3337.71	-30.0903
109	-3340.45	-30.1819
109.1	-3353.58	-30.1819
109.2	-3390.5	-30.0903
109.3	-3396.61	-30.2429
109.4	-3376.77	-30.1514
109.5	-3372.19	-30.0598
109.6	-3394.17	-30.1514
109.7	-3405.46	-30.304
109.8	-3421.02	-30.2124
109.9	-3414.31	-30.0598
110	-3386.54	-30.1819
110.1	-3370.97	-30.2734
110.2	-3358.15	-30.1514
110.3	-3349.3	-35.0952
110.4	-3386.23	-35.1868
110.5	-3576.97	-35.2173
110.6	-3720.09	-35.0952
110.7	-3707.89	-35.1563
110.8	-3690.8	-35.2173
110.9	-3658.75	-35.0952
111	-3617.25	-35.3088
111.1	-3604.43	-35.1257
111.2	-3594.36	-35.0952
111.3	-3573.91	-35.1868
111.4	-3554.69	-35.0952
111.5	-3576.66	-35.2173
111.6	-3598.63	-35.0952
111.7	-3578.49	-35.1868
111.8	-3550.72	-35.2783
111.9	-3539.12	-35.0952
112	-3522.95	-35.1257
112.1	-3499.76	-35.2478
112.2	-3486.33	-35.1563
112.3	-3478.09	-35.1257
112.4	-3449.4	-35.1563
112.5	-3444.21	-35.2478
112.6	-3488.46	-35.1868
112.7	-3502.81	-35.1257
112.8	-3485.41	-35.0952
112.9	-3502.81	-35.0952
113	-3519.9	-35.1257
113.1	-3510.13	-35.2173
113.2	-3478.7	-35.2478
113.3	-3453.98	-35.1563
113.4	-3475.04	-35.0647
113.5	-3499.76	-35.0647
113.6	-3479.31	-35.1257
113.7	-3463.44	-35.1257
113.8	-3478.39	-35.0952
113.9	-3508.61	-35.1563
114	-3555.91	-35.2478
114.1	-3571.17	-35.2478
114.2	-3563.54	-35.2478
114.3	-3573	-35.1257
114.4	-3580.32	-35.0952
114.5	-3563.54	-35.1868
114.6	-3548.89	-35.2478
114.7	-3549.8	-35.1257
114.8	-3557.74	-35.0647
114.9	-3565.37	-35.2478
115	-3572.08	-35.2478
115.1	-3568.73	-35.0952
115.2	-3571.78	-35.1868
115.3	-3554.69	-35.1563
115.4	-3531.49	-35.0342
115.5	-3528.44	-35.2478
115.6	-3515.32	-35.0952
115.7	-3507.08	-35.1868
115.8	-3533.33	-35.1868
115.9	-3553.77	-35.0952
116	-3541.26	-35.1563
116.1	-3532.41	-35.2478
116.2	-3528.14	-35.0647
116.3	-3523.86	-35.1563
116.4	-3532.71	-35.1868
116.5	-3533.94	-35.0952
116.6	-3553.47	-35.1868
116.7	-3561.71	-35.1563
116.8	-3541.26	-35.0952
116.9	-3512.57	-35.0952
117	-3516.85	-35.2783
117.1	-3526.92	-35.1257
117.2	-3531.49	-35.0952
117.3	-3535.46	-35.2783
117.4	-3538.51	-35.0952
117.5	-3553.77	-35.0647
117.6	-3576.35	-35.2783
117.7	-3568.42	-35.2478
117.8	-3543.4	-35.0952
117.9	-3505.86	-35.0952
118	-3493.65	-35.1868
118.1	-3494.26	-35.2783
118.2	-3497.62	-35.1257
118.3	-3518.68	-35.1257
118.4	-3528.14	-35.0952
118.5	-3522.95	-35.1257
118.6	-3508.3	-35.2783
118.7	-3501.59	-35.1868
118.8	-3493.04	-35.0647
118.9	-3475.95	-35.1257
119	-3469.54	-35.1257
119.1	-3454.59	-35.1257
119.2	-3432.01	-35.1868
119.3	-3451.54	-35.2783
119.4	-3460.08	-35.2173
119.5	-3443.3	-35.2173
119.6	-3449.71	-35.2478
119.7	-3442.08	-35.1563
119.8	-3468.93	-35.0952
119.9	-3515.63	-35.1563
120	-3522.95	-35.1257
120.1	-3519.59	-35.0952
120.2	-3515.01	-40.1306
120.3	-3605.04	-40.1306
120.4	-3775.63	-40.1001
120.5	-3789.06	-40.1001
120.6	-3742.98	-40.1306
120.7	-3699.65	-40.1306
120.8	-3680.73	-40.1001
120.9	-3692.02	-40.1001
121	-3718.26	-40.1001
121.1	-3723.45	-40.1001
121.2	-3671.88	-40.1917
121.3	-3652.65	-40.1917
121.4	-3656.62	-40.2222
121.5	-3634.95	-40.3137
121.6	-3637.08	-40.1917
121.7	-3630.07	-40.0696
121.8	-3622.74	-40.1001
121.9	-3638.61	-40.1306
122	-3661.19	-40.1001
122.1	-3687.13	-40.0696
122.2	-3717.96	-40.1611
122.3	-3747.25	-40.1001
122.4	-3759.46	-40.1001
122.5	-3727.42	-40.1917
122.6	-3707.89	-40.0696
122.7	-3684.08	-40.0696
122.8	-3640.75	-40.1001
122.9	-3634.34	-40.1611
123	-3668.82	-40.1001
123.1	-3674.01	-40.1306
123.2	-3650.51	-40.1001
123.3	-3654.17	-40.0391
123.4	-3651.12	-40.1001
123.5	-3629.76	-40.1611
123.6	-3624.27	-40.2527
123.7	-3676.45	-40.2222
123.8	-3686.52	-40.2527
123.9	-3649.29	-40.2527
124	-3624.27	-40.1611
124.1	-3608.7	-40.1306
124.2	-3618.47	-40.1917
124.3	-3612.06	-40.1001
124.4	-3592.83	-40.1306
124.5	-3607.79	-40.1001
124.6	-3622.44	-40.1001
124.7	-3596.5	-40.1917
124.8	-3575.13	-40.3137
124.9	-3600.77	-40.2222
125	-3618.77	-40.1611
125.1	-3602.91	-40.1611
125.2	-3585.21	-40.1001
125.3	-3600.46	-40.0696
125.4	-3657.53	-40.1306
125.5	-3676.76	-40.0696
125.6	-3640.44	-40.1001
125.7	-3588.56	-40.2832
125.8	-3537.29	-40.2832
125.9	-3536.99	-40.1306
126	-3572.69	-40.1611
126.1	-3606.57	-40.1001
126.2	-3647.46	-40.0696
126.3	-3689.88	-40.2222
126.4	-3709.41	-40.2832
126.5	-3680.11	-40.1306
126.6	-3632.81	-40.1001
126.7	-3612.98	-40.2832
126.8	-3593.75	-40.1611
126.9	-3553.77	-40.1001
127	-3534.55	-40.2222
127.1	-3564.45	-40.2527
127.2	-3609.01	-40.1306
127.3	-3595.28	-40.1611
127.4	-3557.43	-40.2527
127.5	-3535.16	-40.0696
127.6	-3525.39	-40.1001
127.7	-3537.9	-40.2527
127.8	-3537.29	-40.2222
127.9	-3550.11	-40.1306
128	-3547.36	-40.1611
128.1	-3513.18	-40.2527
128.2	-3510.13	-40.1001
128.3	-3492.74	-40.1306
128.4	-3489.99	-40.1306
128.5	-3509.22	-40.1611
128.6	-3508	-40.2832
128.7	-3510.74	-40.2832
128.8	-3515.01	-40.1611
128.9	-3551.94	-40.1001
129	-3564.76	-40.1001
129.1	-3573.3	-40.1001
129.2	-3594.06	-40.1001
129.3	-3588.87	-40.1917
129.4	-3569.64	-40.2222
129.5	-3559.57	-40.1917
129.6	-3567.5	-40.1306
129.7	-3584.59	-40.0696
129.8	-3588.56	-40.1001
129.9	-3616.33	-40.1306
130	-3658.14	-40.2832
130.1	-3652.65	-40.0696
130.2	-3613.28	-45.0439
130.3	-3621.52	-45.2271
130.4	-3757.63	-45.166
130.5	-3879.7	-45.0439
130.6	-3896.79	-45.0745
130.7	-3890.99	-45.166
130.8	-3898.32	-45.2271
130.9	-3889.77	-45.166
131	-3875.12	-45.0745
131.1	-3871.46	-45.0439
131.2	-3863.53	-45.105
131.3	-3860.78	-45.1355
131.4	-3880	-45.166
131.5	-3895.87	-45.1965
131.6	-3884.89	-45.2576
131.7	-3870.24	-45.1965
131.8	-3884.89	-45.2271
131.9	-3889.16	-45.2576
132	-3885.19	-45.166
132.1	-3863.53	-45.105
132.2	-3858.03	-45.0439
132.3	-3884.28	-45.1355
132.4	-3881.23	-45.1965
132.5	-3867.19	-45.1965
132.6	-3868.41	-45.2576
132.7	-3860.47	-45.166
132.8	-3864.44	-45.0745
132.9	-3840.03	-45.0745
133	-3798.83	-45.2576
133.1	-3802.19	-45.2576
133.2	-3818.05	-45.105
133.3	-3841.55	-45.105
133.4	-3894.96	-45.0745
133.5	-3880	-45.1355
133.6	-3837.59	-45.1965
133.7	-3882.75	-45.166
133.8	-3907.17	-45.105
133.9	-3869.63	-45.0745
134	-3847.05	-45.0134
134.1	-3830.87	-45.105
134.2	-3810.73	-45.0745
134.3	-3809.51	-45.0439
134.4	-3797.91	-45.0745
134.5	-3789.98	-45.105
134.6	-3772.89	-45.0745
134.7	-3754.88	-45.105
134.8	-3762.21	-45.1355
134.9	-3783.87	-45.1355
135	-3782.04	-45.0745
135.1	-3786.01	-45.0745
135.2	-3792.42	-45.0745
135.3	-3805.85	-45.1355
135.4	-3806.15	-45.105
135.5	-3762.21	-45.1355
135.6	-3721.01	-45.2271
135.7	-3693.54	-45.2271
135.8	-3682.25	-45.166
135.9	-3660.28	-45.166
136	-3656.31	-45.2576
136.1	-3653.26	-45.2576
136.2	-3637.7	-45.1355
136.3	-3655.09	-45.0439
136.4	-3706.67	-45.1355
136.5	-3736.88	-45.2271
136.6	-3746.95	-45.2271
136.7	-3735.05	-45.105
136.8	-3703.61	-45.105
136.9	-3688.66	-45.0439
137	-3709.41	-45.0745
137.1	-3725.89	-45.1965
137.2	-3764.95	-45.166
137.3	-3816.22	-45.0439
137.4	-3854.98	-45.2271
137.5	-3895.26	-45.166
137.6	-3923.65	-45.0745
137.7	-3931.27	-45.105
137.8	-3923.03	-45.2271
137.9	-3868.71	-45.0745
138	-3820.19	-45.105
138.1	-3783.87	-45.1965
138.2	-3760.38	-45.166
138.3	-3750.31	-45.0745
138.4	-3746.03	-45.2576
138.5	-3787.23	-45.1355
138.6	-3845.21	-45.0439
138.7	-3849.49	-45.2271
138.8	-3823.85	-45.1355
138.9	-3816.53	-45.1355
139	-3789.98	-45.166
139.1	-3742.37	-45.0745
139.2	-3718.57	-45.2576
139.3	-3734.44	-45.2271
139.4	-3748.47	-45.0745
139.5	-3730.47	-45.0745
139.6	-3738.4	-45.2271
139.7	-3752.14	-45.1965
139.8	-3772.28	-45.0745
139.9	-3797.3	-45.1355
140	-3794.56	-45.2271
140.1	-3806.76	-45.0745
140.2	-3829.65	-50.0488
140.3	-3899.54	-50.2319
140.4	-4080.51	-50.1099
140.5	-4154.36	-50.1404
140.6	-4137.27	-50.1404
140.7	-4202.27	-50.0488
140.8	-4299.32	-50.2319
140.9	-4288.02	-50.1099
141	-4221.19	-50.2319
141.1	-4220.58	-50.0488
141.2	-4250.18	-50.2319
141.3	-4281.62	-50.0793
141.4	-4292.6	-50.2014
141.5	-4270.32	-50.0488
141.6	-4238.89	-50.2014
141.7	-4219.06	-50.1099
141.8	-4191.28	-50.1709
141.9	-4147.64	-50.1099
142	-4111.94	-50.1099
142.1	-4114.38	-50.2319
142.2	-4123.54	-50.2014
142.3	-4118.96	-50.0793
142.4	-4170.53	-50.2625
142.5	-4211.43	-50.1099
142.6	-4198.61	-50.2319
142.7	-4162.9	-50.0488
142.8	-4151.92	-50.2014
142.9	-4156.8	-50.1709
143	-4147.95	-50.1099
143.1	-4145.81	-50.1709
143.2	-4153.44	-50.0793
143.3	-4147.95	-50.2319
143.4	-4121.4	-50.0793
143.5	-4087.22	-50.0793
143.6	-4042.36	-50.1709
143.7	-4026.79	-50.0793
143.8	-4038.39	-50.1709
143.9	-4095.15	-50.0793
144	-4192.81	-50.2014
144.1	-4205.63	-50.1099
144.2	-4183.04	-50.2319
144.3	-4190.67	-50.0488
144.4	-4190.67	-50.2014
144.5	-4200.13	-50.1404
144.6	-4189.45	-50.2014
144.7	-4173.58	-50.0793
144.8	-4205.02	-50.2625
144.9	-4230.04	-50.0793
145	-4226.07	-50.1709
145.1	-4204.71	-50.1099
145.2	-4179.99	-50.1099
145.3	-4191.28	-50.1404
145.4	-4226.99	-50.2014
145.5	-4245.3	-50.0793
145.6	-4207.15	-50.1404
145.7	-4169.62	-50.1099
145.8	-4146.12	-50.2319
145.9	-4148.25	-50.0488
146	-4150.39	-50.1709
146.1	-4106.45	-50.1099
146.2	-4082.34	-50.1099
146.3	-4085.08	-50.2014
146.4	-4093.32	-50.0488
146.5	-4135.74	-50.293
146.6	-4184.88	-50.1099
146.7	-4164.43	-50.2319
146.8	-4124.15	-50.1099
146.9	-4111.33	-50.1404
147	-4089.66	-50.2014
147.1	-4073.79	-50.1709
147.2	-4075.01	-50.1709
147.3	-4082.03	-50.1099
147.4	-4091.49	-50.0488
147.5	-4086	-50.1404
147.6	-4098.21	-50.293
147.7	-4112.55	-50.0488
147.8	-4104.31	-50.2014
147.9	-4113.77	-50.1709
148	-4149.48	-50.1099
148.1	-4169.01	-50.2319
148.2	-4152.22	-50.0488
148.3	-4122.62	-50.2625
148.4	-4087.83	-50.0793
148.5	-4064.64	-50.1404
148.6	-4048.16	-50.1709
148.7	-4058.84	-50.0793
148.8	-4084.47	-50.1404
148.9	-4086	-50.2319
149	-4069.52	-50.1709
149.1	-4065.86	-50.1099
149.2	-4072.57	-50.1099
149.3	-4072.27	-50.0793
149.4	-4089.36	-50.2319
149.5	-4105.53	-50.1099
149.6	-4117.74	-50.1404
149.7	-4151	-50.1404
149.8	-4193.12	-50.1709
149.9	-4188.23	-50.1709
150	-4133.91	-50.0793
150.1	-4073.49	-55.2673
150.2	-4039	-55.0842
150.3	-4189.76	-55.1758
150.4	-4397.28	-55.1147
150.5	-4445.19	-55.2368
150.6	-4467.77	-55.0842
150.7	-4486.39	-55.1453
150.8	-4512.33	-55.1147
150.9	-4571.23	-55.2063
151	-4601.14	-55.0842
151.1	-4585.88	-55.2368
151.2	-4578.55	-55.0842
151.3	-4559.94	-55.2368
151.4	-4553.22	-55.0842
151.5	-4541.02	-55.1758
151.6	-4537.66	-55.2368
151.7	-4521.48	-55.0537
151.8	-4472.66	-55.1453
151.9	-4440.92	-55.2063
152	-4477.84	-55.0537
152.1	-4561.77	-55.2063
152.2	-4596.56	-55.0537
152.3	-4566.65	-55.2063
152.4	-4515.69	-55.0842
152.5	-4512.02	-55.1758
152.6	-4547.12	-55.2368
152.7	-4593.2	-55.0537
152.8	-4621.89	-55.2368
152.9	-4628.6	-55.1147
153	-4635.01	-55.1758
153.1	-4617.92	-55.0842
153.2	-4644.47	-55.0842
153.3	-4668.58	-55.1758
153.4	-4628.6	-55.1147
153.5	-4639.59	-55.2368
153.6	-4648.13	-55.0842
153.7	-4586.49	-55.2368
153.8	-4524.84	-55.1147
153.9	-4531.56	-55.1147
154	-4560.24	-55.1147
154.1	-4567.87	-55.1758
154.2	-4575.2	-55.0842
154.3	-4609.68	-55.2063
154.4	-4618.23	-55.1147
154.5	-4577.64	-55.1453
154.6	-4573.36	-55.1147
154.7	-4591.67	-55.1147
154.8	-4556.27	-55.2063
154.9	-4520.57	-55.0842
155	-4506.84	-55.1758
155.1	-4513.55	-55.0842
155.2	-4530.94	-55.0842
155.3	-4540.71	-55.2673
155.4	-4510.19	-55.2063
155.5	-4516.6	-55.0537
155.6	-4570.92	-55.1147
155.7	-4567.87	-55.2368
155.8	-4523.32	-55.0842
155.9	-4507.14	-55.1147
156	-4501.65	-55.2368
156.1	-4506.23	-55.1147
156.2	-4507.14	-55.0232
156.3	-4538.57	-55.1147
156.4	-4567.26	-55.2063
156.5	-4560.55	-55.0842
156.6	-4533.08	-55.0842
156.7	-4489.75	-55.2673
156.8	-4455.57	-55.1453
156.9	-4472.96	-55.0537
157	-4494.93	-55.1758
157.1	-4489.44	-55.2673
157.2	-4470.21	-55.1147
157.3	-4445.5	-55.0537
157.4	-4472.05	-55.2063
157.5	-4513.85	-55.1758
157.6	-4487.3	-55.0842
157.7	-4471.44	-55.1453
157.8	-4513.85	-55.2979
157.9	-4491.58	-55.0842
158	-4451.29	-55.2063
158.1	-4469.91	-55.1147
158.2	-4500.73	-55.0842
158.3	-4509.28	-55.2673
158.4	-4513.55	-55.0537
158.5	-4480.9	-55.1453
158.6	-4450.07	-55.2673
158.7	-4445.19	-55.0537
158.8	-4494.32	-55.2673
158.9	-4568.48	-55.1147
159	-4591.37	-55.1453
159.1	-4583.13	-55.0537
159.2	-4558.11	-55.1453
159.3	-4514.77	-55.1453
159.4	-4484.86	-55.0537
159.5	-4516.91	-55.2063
159.6	-4548.95	-55.1147
159.7	-4560.55	-55.1147
159.8	-4518.43	-55.2063
159.9	-4479.68	-55.0842
160	-4463.5	-55.2063
160.1	-4479.68	-60.1196
160.2	-4544.07	-60.2112
160.3	-4769.9	-60.0586
160.4	-4956.36	-60.1196
160.5	-4987.79	-60.2722
160.6	-4998.17	-60.0586
160.7	-5014.34	-60.1501
160.8	-5035.4	-60.1807
160.9	-5057.68	-60.0891
161	-5012.51	-60.1807
161.1	-4949.34	-60.0891
161.2	-4935	-60.1807
161.3	-4908.14	-60.1501
161.4	-4895.32	-60.1501
161.5	-4947.81	-60.1501
161.6	-5010.68	-60.1501
161.7	-5054.02	-60.2112
161.8	-5048.22	-60.0891
161.9	-4996.95	-60.1196
162	-4972.53	-60.1807
162.1	-4982.91	-60.1196
162.2	-5018.92	-60.2112
162.3	-5057.98	-60.0586
162.4	-5039.06	-60.2417
162.5	-4989.62	-60.0891
162.6	-4983.52	-60.1501
162.7	-5029.3	-60.1807
162.8	-5061.95	-60.1807
162.9	-5054.32	-60.0586
163	-5016.48	-60.1807
163.1	-5018.92	-60.0891
163.2	-5024.72	-60.1807
163.3	-5019.53	-60.2112
163.4	-4998.17	-60.0281
163.5	-4949.04	-60.2112
163.6	-4903.87	-60.1196
163.7	-4888.61	-60.0891
163.8	-4901.12	-60.1807
163.9	-4894.71	-60.1196
164	-4907.23	-60.2417
164.1	-4969.79	-60.0891
164.2	-4964.29	-60.1501
164.3	-4892.88	-60.0891
164.4	-4877.01	-60.2112
164.5	-4902.04	-60.0891
164.6	-4926.45	-60.1501
164.7	-4950.26	-60.1501
164.8	-4954.53	-60.1501
164.9	-4962.46	-60.0891
165	-4960.63	-60.1501
165.1	-4940.19	-60.0891
165.2	-4917.6	-60.3027
165.3	-4936.22	-60.0586
165.4	-4931.34	-60.2417
165.5	-4935.3	-60.0586
165.6	-4933.78	-60.1807
165.7	-4936.83	-60.1807
165.8	-4940.49	-60.0891
165.9	-4899.29	-60.2112
166	-4854.74	-60.0586
166.1	-4870	-60.2722
166.2	-4922.49	-60.0586
166.3	-4917.3	-60.1501
166.4	-4888.61	-60.0891
166.5	-4865.11	-60.2722
166.6	-4880.98	-60.0891
166.7	-4880.98	-60.1501
166.8	-4852.6	-60.0891
166.9	-4841	-60.2112
167	-4840.39	-60.0586
167.1	-4851.07	-60.1807
167.2	-4846.5	-60.1196
167.3	-4804.08	-60.1501
167.4	-4767.15	-60.2112
167.5	-4789.12	-60.0891
167.6	-4791.26	-60.1807
167.7	-4758.91	-60.0891
167.8	-4776.61	-60.2112
167.9	-4766.24	-60.0891
168	-4751.28	-60.1196
168.1	-4766.24	-60.1196
168.2	-4753.11	-60.2112
168.3	-4725.95	-60.0891
168.4	-4744.26	-60.1501
168.5	-4792.79	-60.1501
168.6	-4834.29	-60.1807
168.7	-4826.05	-60.1196
168.8	-4802.86	-60.1196
168.9	-4805.6	-60.0891
169	-4824.22	-60.2417
169.1	-4848.63	-60.0891
169.2	-4824.52	-60.2112
169.3	-4779.05	-60.0586
169.4	-4753.72	-60.2722
169.5	-4748.84	-60.1196
169.6	-4744.87	-60.2112
169.7	-4749.76	-60.0586
169.8	-4781.49	-60.1501
169.9	-4785.77	-60.1807
170	-4792.18	-60.0891
170.1	-4774.48	-65.2161
170.2	-4768.68	-65.0024
170.3	-4877.62	-65.155
170.4	-5125.43	-65.094
170.5	-5287.78	-65.094
170.6	-5336	-65.155
170.7	-5382.08	-65.0024
170.8	-5414.73	-65.1855
170.9	-5350.65	-65.0635
171	-5303.96	-65.2161
171.1	-5282.59	-65.033
171.2	-5224.61	-65.2161
171.3	-5205.99	-65.033
171.4	-5237.12	-65.1855
171.5	-5249.94	-65.094
171.6	-5311.28	-65.2161
171.7	-5353.7	-65.155
171.8	-5299.99	-65.033
171.9	-5275.88	-65.1855
172	-5263.67	-65.1855
172.1	-5265.2	-65.0635
172.2	-5309.14	-65.1245
172.3	-5325.62	-65.033
172.4	-5285.34	-65.094
172.5	-5255.74	-65.155
172.6	-5274.96	-65.0635
172.7	-5267.94	-65.0635
172.8	-5226.44	-65.094
172.9	-5211.79	-65.1855
173	-5198.06	-65.0635
173.1	-5189.82	-65.1855
173.2	-5233.76	-65.033
173.3	-5283.81	-65.2161
173.4	-5321.04	-65.094
173.5	-5355.22	-65.2161
173.6	-5377.5	-65.033
173.7	-5354.31	-65.1855
173.8	-5296.02	-65.0635
173.9	-5240.78	-65.155
174	-5253.3	-65.1855
174.1	-5330.81	-65.0635
174.2	-5354.31	-65.155
174.3	-5326.23	-65.0635
174.4	-5310.06	-65.1245
174.5	-5293.88	-65.1855
174.6	-5283.2	-65.0635
174.7	-5272.52	-65.2161
174.8	-5261.23	-65.0024
174.9	-5253.6	-65.094
175	-5268.25	-65.1855
175.1	-5297.24	-65.0635
175.2	-5297.55	-65.1855
175.3	-5248.72	-65.033
175.4	-5239.26	-65.2161
175.5	-5220.03	-65.0635
175.6	-5198.06	-65.1855
175.7	-5236.51	-65.0024
175.8	-5233.76	-65.2161
175.9	-5213.32	-65.0635
176	-5209.05	-65.155
176.1	-5205.69	-65.033
176.2	-5215.45	-65.0635
176.3	-5201.72	-65.1855
176.4	-5182.19	-65.0635
176.5	-5162.66	-65.1855
176.6	-5157.78	-65.0635
176.7	-5159	-65.033
176.8	-5190.12	-65.155
176.9	-5193.18	-65.155
177	-5184.02	-65.033
177.1	-5167.85	-65.1245
177.2	-5159.3	-65.155
177.3	-5167.85	-65.094
177.4	-5169.37	-65.1855
177.5	-5155.94	-65.033
177.6	-5185.55	-65.1245
177.7	-5255.13	-65.1245
177.8	-5260.01	-65.0635
177.9	-5219.73	-65.1855
178	-5230.41	-65.0635
178.1	-5271	-65.033
178.2	-5255.74	-65.2466
178.3	-5250.85	-65.094
178.4	-5251.46	-65.033
178.5	-5236.51	-65.1855
178.6	-5255.43	-65.094
178.7	-5274.66	-65.094
178.8	-5274.96	-65.0635
178.9	-5220.95	-65.1855
179	-5157.78	-65.155
179.1	-5159.61	-65.094
179.2	-5164.18	-65.094
179.3	-5152.59	-65.094
179.4	-5116.58	-65.1855
179.5	-5128.78	-65.1855
179.6	-5144.35	-65.0635
179.7	-5132.14	-65.0635
179.8	-5144.35	-65.2161
179.9	-5139.77	-65.0635
180	-5112.92	-65.0635
180.1	-5080.26	-70.2209
180.2	-5075.68	-70.0378
180.3	-5202.64	-70.0684
180.4	-5425.42	-70.2209
180.5	-5590.82	-70.0378
180.6	-5663.45	-70.0684
180.7	-5671.69	-70.1904
180.8	-5629.27	-70.0378
180.9	-5593.26	-70.1294
181	-5584.72	-70.0989
181.1	-5613.1	-70.0073
181.2	-5636.9	-70.2515
181.3	-5586.85	-70.0989
181.4	-5531.62	-70.1904
181.5	-5502.01	-70.0684
181.6	-5508.12	-70.1599
181.7	-5558.47	-70.1294
181.8	-5563.35	-70.1294
181.9	-5545.04	-70.0684
182	-5531.01	-70.0073
182.1	-5519.71	-70.1904
182.2	-5511.17	-70.1294
182.3	-5530.7	-70.0684
182.4	-5532.84	-70.0073
182.5	-5543.52	-70.1294
182.6	-5512.7	-70.2209
182.7	-5471.19	-70.1294
182.8	-5461.73	-70.0073
182.9	-5427.25	-70.1294
183	-5397.64	-70.2515
183.1	-5402.22	-70.0989
183.2	-5410.77	-70.0684
183.3	-5379.03	-70.1599
183.4	-5379.03	-70.2209
183.5	-5395.2	-70.2209
183.6	-5387.88	-70.2209
183.7	-5379.94	-70.2515
183.8	-5371.7	-70.2515
183.9	-5403.44	-70.1904
184	-5467.83	-70.1294
184.1	-5510.86	-70.1599
184.2	-5508.12	-70.0989
184.3	-5462.65	-70.0378
184.4	-5432.43	-70.0378
184.5	-5448.91	-70.1294
184.6	-5475.16	-70.2209
184.7	-5483.09	-70.2209
184.8	-5472.72	-70.0989
184.9	-5469.06	-70.0989
185	-5471.5	-70.0684
185.1	-5469.36	-70.0684
185.2	-5434.88	-70.0073
185.3	-5391.24	-70.0989
185.4	-5379.33	-70.1599
185.5	-5378.11	-70.1599
185.6	-5363.46	-70.1294
185.7	-5356.14	-70.0989
185.8	-5368.96	-70.0684
185.9	-5373.84	-70.0989
186	-5367.13	-70.1904
186.1	-5348.82	-70.1294
186.2	-5377.2	-70.0684
186.3	-5366.21	-70.1904
186.4	-5329.9	-70.0378
186.5	-5322.57	-70.1294
186.6	-5301.82	-70.2209
186.7	-5313.72	-70.0684
186.8	-5321.66	-70.0378
186.9	-5330.2	-70.1904
187	-5356.75	-70.2209
187.1	-5407.1	-70.0073
187.2	-5414.73	-70.0989
187.3	-5355.22	-70.2209
187.4	-5288.09	-70.0073
187.5	-5274.96	-70.1294
187.6	-5324.71	-70.2209
187.7	-5374.45	-70.1294
187.8	-5351.56	-70.0378
187.9	-5331.73	-70.1294
188	-5348.21	-70.1599
188.1	-5331.12	-70.0684
188.2	-5329.9	-70.0684
188.3	-5339.97	-70.1599
188.4	-5344.85	-70.1294
188.5	-5351.87	-70.0378
188.6	-5335.08	-70.0989
188.7	-5328.37	-70.1904
188.8	-5303.96	-70.1904
188.9	-5292.66	-70.1294
189	-5314.33	-70.0378
189.1	-5295.1	-70.2209
189.2	-5272.83	-70.0378
189.3	-5326.84	-70.1294
189.4	-5392.46	-70.2209
189.5	-5408.94	-70.0073
189.6	-5389.71	-70.1294
189.7	-5386.35	-70.1599
189.8	-5352.17	-70.0073
189.9	-5290.83	-70.1904
190	-5310.06	-75.0732
190.1	-5313.11	-75.0732
190.2	-5426.33	-75.0732
190.3	-5625.31	-75.0427
190.4	-5702.82	-75.1953
190.5	-5677.19	-75.0122
190.6	-5618.59	-75.1038
190.7	-5621.64	-75.1038
190.8	-5639.65	-75.0732
190.9	-5619.81	-75.1648
191	-5597.23	-75.1648
191.1	-5625.61	-75.0122
191.2	-5660.4	-75.1038
191.3	-5659.18	-75.1953
191.4	-5663.45	-75.0122
191.5	-5678.41	-75.0732
191.6	-5681.15	-75.1038
191.7	-5659.18	-75.0427
191.8	-5599.06	-75.1648
191.9	-5581.67	-75.0427
192	-5603.03	-75.1343
192.1	-5566.1	-75.1648
192.2	-5546.57	-75.0122
192.3	-5579.22	-75.0427
192.4	-5624.08	-75.0427
192.5	-5638.12	-75.1648
192.6	-5632.93	-75.0427
192.7	-5601.81	-75.0427
192.8	-5593.87	-75.1648
192.9	-5592.96	-75.0427
193	-5557.56	-75.0427
193.1	-5533.45	-75.2258
193.2	-5552.98	-75.0427
193.3	-5557.86	-75.0122
193.4	-5527.04	-75.1953
193.5	-5501.1	-75.0122
193.6	-5511.78	-75.1343
193.7	-5524.29	-75.1038
193.8	-5523.38	-75.0427
193.9	-5534.06	-75.1648
194	-5532.23	-75.0122
194.1	-5542.6	-75.1038
194.2	-5557.56	-75.1648
194.3	-5545.96	-75.1038
194.4	-5551.45	-75.0427
194.5	-5541.08	-75.2258
194.6	-5496.52	-75.0122
194.7	-5480.35	-75.1038
194.8	-5471.5	-75.1038
194.9	-5441.89	-75.0122
195	-5455.32	-75.1343
195.1	-5475.16	-75.0427
195.2	-5462.34	-75.1953
195.3	-5445.56	-74.9817
195.4	-5428.47	-75.1343
195.5	-5378.42	-75.0427
195.6	-5377.2	-75.1343
195.7	-5421.14	-75.0122
195.8	-5467.83	-75.1343
195.9	-5505.68	-75.1343
196	-5496.83	-75.0122
196.1	-5433.35	-75.1343
196.2	-5402.22	-75.1343
196.3	-5391.24	-74.9817
196.4	-5404.36	-75.1648
196.5	-5464.48	-75.1038
196.6	-5475.77	-75.0427
196.7	-5426.64	-75.1648
196.8	-5417.18	-75.1038
196.9	-5390.01	-75.0427
197	-5334.17	-75.1038
197.1	-5327.15	-75.0122
197.2	-5325.93	-75.1953
197.3	-5304.57	-74.9817
197.4	-5314.03	-75.1343
197.5	-5313.72	-75.0122
197.6	-5301.51	-75.1343
197.7	-5969.24	-74.9512
197.8	-9395.14	-75.1953
197.9	-10000	-75.0427
198	-10000	-75.0732
198.1	-10000	-75.1343
198.2	-10000	-75.0427
198.3	-10000	-75.1343
198.4	-10000	-75.1343
198.5	-10000	-75.1038
198.6	-10000	-75.0122
198.7	-10000	-75.1038
198.8	-10000	-75.0732
198.9	-10000	-75.0427
199	-10000	-75.1953
199.1	-10000	-75.0427
199.2	-10000	-75.0732
199.3	-10000	-75.1953
199.4	-10000	-75.0732
199.5	-10000	-75.0427
199.6	-10000	-75.1648
199.7	-10000	-75.1038
199.8	-10000	-75.0122
199.9	-10000	-75.1953
200	-10000	-75.0732
200.1	-10000	-74.9817
200.2	-10000	-75.1038
200.3	-10000	-75.1648
200.4	-10000	-75.0122
200.5	-10000	-75.1343
200.6	-10000	-75.1953
200.7	-10000	-75.0427
200.8	-10000	-75.0427
200.9	-10000	-75.2258
201	-10000	-75.0122
201.1	-10000	-75.1038
201.2	-10000	-75.0427
201.3	-10000	-75.1648
201.4	-10000	-75.0122
201.5	-10000	-75.1648
201.6	-10000	-75.0427
201.7	-10000	-75.0732
201.8	-10000	-75.1953
201.9	-10000	-75.0427
202	-10000	-75.1648
202.1	-10000	-75.0122
202.2	-10000	-75.1038
202.3	-10000	-75.0732
202.4	-10000	-80.0171
202.5	-10000	-80.2002
202.6	-10000	-80.0171
202.7	-10000	-80.2002
202.8	-10000	-80.0781
202.9	-10000	-80.1086
203	-10000	-79.9866
203.1	-10000	-80.1697
203.2	-10000	-80.0781
203.3	-10000	-80.0476
203.4	-10000	-80.1086
203.5	-10000	-80.0476
203.6	-10000	-80.1392
203.7	-10000	-80.0171
203.8	-10000	-80.0476
203.9	-10000	-80.1086
204	-10000	-80.0171
204.1	-10000	-80.0476
204.2	-10000	-80.1697
204.3	-10000	-80.0171
204.4	-10000	-80.0171
204.5	-10000	-80.2002
204.6	-10000	-79.9866
204.7	-10000	-80.0171
204.8	-10000	-80.1392
204.9	-10000	-80.0171
205	-10000	-80.1697
205.1	-10000	-80.0171
205.2	-10000	-80.1086
205.3	-10000	-80.1392
205.4	-10000	-79.9561
205.5	-10000	-80.2307
205.6	-10000	-80.0171
