ATF	1.0
7	3     
"AcquisitionMode=Gap Free"
"Comment="
"YTop=10000,1000"
"YBottom=-10000,-1000"
"SweepStartTimesMS=0.000"
"SignalsExported=Im_Scaled,10_mv"
"Signals="	"Im_Scaled"	"10_mv"
"Time (s)"	"Trace #1 (pA)"	"Trace #1 (mV)"
0	441.895	19.6838
0.1	441.284	19.7449
0.2	446.472	19.7754
0.3	451.355	19.7449
0.4	449.524	19.6228
0.5	445.862	19.7449
0.6	449.524	19.7449
0.7	455.627	19.6838
0.8	450.745	19.7144
0.9	446.777	19.7449
1	446.777	19.6533
1.1	443.115	19.7754
1.2	444.336	19.7144
1.3	452.271	19.6228
1.4	453.491	19.7754
1.5	447.388	19.5923
1.6	447.388	19.7449
1.7	448.608	19.7144
1.8	442.505	19.6533
1.9	439.758	19.7449
2	442.2	19.6228
2.1	443.115	19.7449
2.2	446.167	19.7449
2.3	445.862	19.6838
2.4	442.505	19.7449
2.5	447.083	19.6533
2.6	453.796	19.7449
2.7	450.134	19.7754
2.8	444.946	19.5923
2.9	447.083	19.7449
3	457.458	19.7449
3.1	455.933	19.6533
3.2	448.303	19.7754
3.3	447.998	19.6228
3.4	447.083	19.7449
3.5	451.355	19.7754
3.6	459.9	19.6533
3.7	458.679	19.7449
3.8	455.627	19.8059
3.9	457.764	19.5923
4	462.036	19.7449
4.1	459.29	19.8059
4.2	455.933	19.6838
4.3	455.627	19.6533
4.4	455.933	19.6533
4.5	456.848	19.6838
4.6	456.543	19.8059
4.7	458.069	19.6838
4.8	457.458	19.6533
4.9	453.186	19.7449
5	453.491	19.7449
5.1	453.491	19.6838
5.2	455.322	19.6228
5.3	457.458	19.6838
5.4	453.796	19.7449
5.5	457.458	19.7754
5.6	460.51	19.6533
5.7	461.121	19.6533
5.8	456.848	19.7449
5.9	459.595	19.6533
6	456.848	19.7754
6.1	453.186	19.6838
6.2	452.881	19.6838
6.3	454.407	19.7754
6.4	455.017	19.5923
6.5	453.491	19.7449
6.6	456.848	19.7144
6.7	459.9	19.6838
6.8	459.9	19.7754
6.9	457.764	19.5923
7	455.322	19.7754
7.1	453.186	19.6228
7.2	451.05	19.7754
7.3	451.355	19.7144
7.4	456.848	19.6533
7.5	461.121	19.7449
7.6	465.698	19.6228
7.7	462.646	19.8364
7.8	459.9	19.6228
7.9	457.153	19.7144
8	458.069	19.7144
8.1	456.543	19.6533
8.2	456.543	19.7449
8.3	462.952	19.6533
8.4	463.562	19.7754
8.5	463.867	19.6533
8.6	463.257	19.7144
8.7	463.562	19.6533
8.8	463.562	19.7754
8.9	465.088	19.6228
9	469.666	19.7754
9.1	469.36	19.5923
9.2	464.783	19.7754
9.3	463.867	19.6533
9.4	461.426	19.7449
9.5	461.121	19.7449
9.6	462.036	19.6533
9.7	462.341	19.7754
9.8	466.309	19.6838
9.9	468.14	19.7449
10	462.036	19.6838
10.1	461.426	14.74
10.2	458.679	14.679
10.3	409.851	14.74
10.4	350.647	14.6484
10.5	341.187	14.7095
10.6	339.966	14.6179
10.7	342.407	14.7705
10.8	342.102	14.6179
10.9	343.933	14.7705
11	343.933	14.7095
11.1	338.44	14.6484
11.2	337.83	14.7095
11.3	342.407	14.801
11.4	340.576	14.6179
11.5	337.219	14.7095
11.6	336.304	14.801
11.7	336.914	14.6179
11.8	337.219	14.7705
11.9	342.102	14.7705
12	344.849	14.679
12.1	339.355	14.5874
12.2	339.355	14.801
12.3	339.661	14.74
12.4	337.524	14.5874
12.5	338.135	14.74
12.6	339.05	14.7095
12.7	338.135	14.6484
12.8	339.355	14.7095
12.9	339.355	14.7705
13	337.83	14.6484
13.1	335.999	14.7705
13.2	336.914	14.6484
13.3	337.524	14.7705
13.4	339.355	14.6484
13.5	342.712	14.74
13.6	343.628	14.6484
13.7	343.018	14.7705
13.8	339.966	14.6179
13.9	340.576	14.74
14	340.271	14.679
14.1	338.135	14.7705
14.2	338.44	14.7095
14.3	339.355	14.74
14.4	339.966	14.7095
14.5	340.881	14.7705
14.6	338.135	14.5874
14.7	336.914	14.7705
14.8	340.271	14.679
14.9	344.849	14.7705
15	346.68	14.74
15.1	345.764	14.6484
15.2	343.628	14.7095
15.3	347.595	14.679
15.4	350.037	14.74
15.5	344.849	14.6179
15.6	343.933	14.74
15.7	343.933	14.7095
15.8	341.492	14.7095
15.9	339.966	14.7705
16	340.576	14.5874
16.1	343.933	14.801
16.2	344.849	14.679
16.3	346.68	14.7095
16.4	345.459	14.801
16.5	344.238	14.5874
16.6	349.731	14.7705
16.7	349.121	14.6179
16.8	343.018	14.8315
16.9	343.628	14.6179
17	345.459	14.7705
17.1	346.069	14.5874
17.2	346.069	14.74
17.3	347.9	14.5874
17.4	349.731	14.8315
17.5	347.9	14.6179
17.6	346.375	14.7705
17.7	347.9	14.679
17.8	349.731	14.74
17.9	350.647	14.7095
18	347.595	14.7095
18.1	349.121	14.679
18.2	349.121	14.7095
18.3	346.069	14.6179
18.4	345.764	14.7705
18.5	350.037	14.74
18.6	351.563	14.6484
18.7	347.595	14.801
18.8	346.68	14.74
18.9	349.121	14.6484
19	347.595	14.74
19.1	345.764	14.6484
19.2	341.797	14.7705
19.3	339.661	14.679
19.4	338.44	14.7095
19.5	339.661	14.801
19.6	344.849	14.7095
19.7	347.9	14.7095
19.8	348.206	14.7705
19.9	343.933	14.6179
20	342.102	14.7705
20.1	340.881	9.70459
20.2	336.609	9.70459
20.3	288.391	9.82666
20.4	231.018	9.73511
20.5	220.947	9.70459
20.6	221.863	9.76563
20.7	221.863	9.76563
20.8	226.135	9.67407
20.9	224.915	9.61304
21	224.304	9.76563
21.1	224.915	9.76563
21.2	222.778	9.61304
21.3	223.694	9.73511
21.4	225.83	9.67407
21.5	226.44	9.64355
21.6	226.44	9.73511
21.7	222.778	9.64355
21.8	221.558	9.73511
21.9	222.778	9.73511
22	222.473	9.64355
22.1	223.999	9.70459
22.2	223.694	9.70459
22.3	223.999	9.73511
22.4	223.083	9.67407
22.5	224.915	9.73511
22.6	227.356	9.70459
22.7	224.609	9.76563
22.8	225.525	9.67407
22.9	227.051	9.67407
23	224.304	9.76563
23.1	224.915	9.61304
23.2	225.22	9.82666
23.3	223.694	9.64355
23.4	222.778	9.79614
23.5	222.473	9.76563
23.6	223.083	9.64355
23.7	222.168	9.73511
23.8	221.558	9.73511
23.9	225.83	9.61304
24	226.746	9.76563
24.1	225.83	9.64355
24.2	223.083	9.79614
24.3	224.304	9.61304
24.4	224.304	9.79614
24.5	224.304	9.61304
24.6	226.746	9.76563
24.7	226.135	9.76563
24.8	226.44	9.58252
24.9	224.915	9.73511
25	221.863	9.67407
25.1	223.999	9.73511
25.2	225.22	9.61304
25.3	225.83	9.79614
25.4	229.187	9.58252
25.5	227.356	9.79614
25.6	224.609	9.58252
25.7	223.389	9.73511
25.8	225.22	9.64355
25.9	227.051	9.76563
26	225.22	9.61304
26.1	225.83	9.76563
26.2	227.661	9.58252
26.3	225.525	9.73511
26.4	222.778	9.70459
26.5	223.999	9.76563
26.6	224.609	9.67407
26.7	226.44	9.82666
26.8	226.44	9.61304
26.9	225.525	9.79614
27	225.83	9.67407
27.1	226.135	9.76563
27.2	226.746	9.73511
27.3	227.051	9.73511
27.4	226.746	9.76563
27.5	226.746	9.73511
27.6	224.915	9.73511
27.7	224.915	9.70459
27.8	226.746	9.73511
27.9	228.577	9.67407
28	227.356	9.73511
28.1	225.525	9.67407
28.2	224.304	9.76563
28.3	224.609	9.67407
28.4	224.915	9.79614
28.5	226.44	9.61304
28.6	228.882	9.76563
28.7	229.797	9.70459
28.8	227.966	9.73511
28.9	227.966	9.70459
29	229.492	9.73511
29.1	229.187	9.73511
29.2	228.271	9.76563
29.3	230.713	9.67407
29.4	231.018	9.76563
29.5	228.271	9.70459
29.6	226.44	9.73511
29.7	227.966	9.76563
29.8	226.746	9.64355
29.9	225.525	9.73511
30	226.746	4.76074
30.1	226.44	4.66919
30.2	194.702	4.76074
30.3	137.329	4.66919
30.4	119.019	4.82178
30.5	120.239	4.63867
30.6	117.493	4.76074
30.7	116.272	4.73022
30.8	116.272	4.73022
30.9	116.882	4.66919
31	116.882	4.76074
31.1	116.882	4.69971
31.2	116.272	4.69971
31.3	115.662	4.73022
31.4	115.967	4.63867
31.5	116.577	4.82178
31.6	117.798	4.73022
31.7	119.019	4.66919
31.8	119.019	4.79126
31.9	119.019	4.73022
32	119.324	4.63867
32.1	117.493	4.82178
32.2	116.272	4.63867
32.3	116.882	4.79126
32.4	116.882	4.69971
32.5	119.324	4.76074
32.6	117.798	4.73022
32.7	116.882	4.63867
32.8	115.662	4.85229
32.9	115.356	4.79126
33	118.103	4.66919
33.1	117.493	4.79126
33.2	116.882	4.66919
33.3	116.272	4.76074
33.4	117.188	4.73022
33.5	116.882	4.63867
33.6	116.577	4.82178
33.7	117.798	4.66919
33.8	118.408	4.79126
33.9	117.798	4.76074
34	115.356	4.66919
34.1	115.051	4.69971
34.2	116.577	4.79126
34.3	118.713	4.63867
34.4	119.019	4.79126
34.5	117.493	4.63867
34.6	118.713	4.76074
34.7	119.934	4.73022
34.8	118.713	4.69971
34.9	117.493	4.79126
35	118.713	4.63867
35.1	119.019	4.79126
35.2	117.493	4.60815
35.3	116.577	4.82178
35.4	117.188	4.60815
35.5	116.272	4.85229
35.6	118.408	4.63867
35.7	119.324	4.82178
35.8	117.798	4.60815
35.9	116.577	4.79126
36	116.272	4.69971
36.1	117.798	4.66919
36.2	119.629	4.79126
36.3	119.324	4.69971
36.4	118.408	4.76074
36.5	119.629	4.63867
36.6	118.103	4.79126
36.7	118.713	4.69971
36.8	118.713	4.76074
36.9	118.103	4.66919
37	119.019	4.82178
37.1	118.713	4.63867
37.2	118.408	4.82178
37.3	117.798	4.73022
37.4	118.713	4.76074
37.5	120.239	4.73022
37.6	120.544	4.76074
37.7	119.934	4.69971
37.8	118.713	4.76074
37.9	117.798	4.66919
38	116.577	4.85229
38.1	117.188	4.60815
38.2	118.103	4.79126
38.3	118.103	4.73022
38.4	119.629	4.73022
38.5	119.019	4.82178
38.6	119.934	4.63867
38.7	119.629	4.82178
38.8	118.103	4.73022
38.9	118.408	4.69971
39	119.629	4.79126
39.1	119.324	4.66919
39.2	119.019	4.73022
39.3	119.934	4.73022
39.4	119.934	4.69971
39.5	118.103	4.76074
39.6	116.272	4.76074
39.7	118.408	4.73022
39.8	120.239	4.69971
39.9	122.07	4.82178
40	121.765	4.76074
40.1	120.239	-0.366211
40.2	118.408	-0.244141
40.3	92.4683	-0.183105
40.4	40.8936	-0.305176
40.5	22.583	-0.274658
40.6	23.1934	-0.183105
40.7	23.1934	-0.274658
40.8	23.1934	-0.305176
40.9	22.8882	-0.244141
41	22.8882	-0.213623
41.1	23.1934	-0.335693
41.2	23.1934	-0.244141
41.3	22.583	-0.244141
41.4	23.1934	-0.335693
41.5	23.1934	-0.244141
41.6	22.8882	-0.183105
41.7	23.1934	-0.305176
41.8	23.1934	-0.274658
41.9	23.1934	-0.213623
42	22.583	-0.213623
42.1	23.1934	-0.396729
42.2	23.1934	-0.305176
42.3	22.8882	-0.183105
42.4	22.583	-0.244141
42.5	22.583	-0.274658
42.6	22.8882	-0.366211
42.7	22.8882	-0.244141
42.8	22.583	-0.183105
42.9	22.583	-0.244141
43	23.1934	-0.213623
43.1	22.8882	-0.335693
43.2	23.1934	-0.305176
43.3	22.8882	-0.183105
43.4	22.8882	-0.183105
43.5	22.8882	-0.366211
43.6	22.8882	-0.335693
43.7	22.583	-0.274658
43.8	22.583	-0.305176
43.9	22.2778	-0.183105
44	22.2778	-0.244141
44.1	22.583	-0.244141
44.2	22.2778	-0.274658
44.3	22.583	-0.396729
44.4	22.583	-0.305176
44.5	22.583	-0.183105
44.6	22.583	-0.244141
44.7	22.8882	-0.305176
44.8	23.1934	-0.274658
44.9	22.8882	-0.244141
45	22.583	-0.305176
45.1	22.8882	-0.244141
45.2	22.8882	-0.274658
45.3	23.1934	-0.274658
45.4	22.2778	-0.244141
45.5	22.2778	-0.274658
45.6	22.583	-0.305176
45.7	22.2778	-0.213623
45.8	21.9727	-0.244141
45.9	21.9727	-0.244141
46	22.2778	-0.335693
46.1	22.583	-0.183105
46.2	22.8882	-0.366211
46.3	22.583	-0.213623
46.4	22.8882	-0.427246
46.5	22.583	-0.183105
46.6	22.583	-0.335693
46.7	22.583	-0.213623
46.8	22.8882	-0.305176
46.9	22.583	-0.213623
47	22.583	-0.305176
47.1	22.8882	-0.305176
47.2	22.8882	-0.244141
47.3	22.8882	-0.274658
47.4	22.583	-0.244141
47.5	22.583	-0.305176
47.6	22.583	-0.213623
47.7	23.1934	-0.366211
47.8	22.583	-0.183105
47.9	22.583	-0.396729
48	22.2778	-0.152588
48.1	22.2778	-0.244141
48.2	22.583	-0.305176
48.3	22.2778	-0.183105
48.4	22.583	-0.244141
48.5	23.1934	-0.335693
48.6	22.583	-0.244141
48.7	21.9727	-0.244141
48.8	22.2778	-0.213623
48.9	22.2778	-0.244141
49	22.2778	-0.305176
49.1	22.583	-0.183105
49.2	22.583	-0.335693
49.3	22.2778	-0.213623
49.4	22.2778	-0.335693
49.5	22.583	-0.274658
49.6	22.583	-0.244141
49.7	22.2778	-0.274658
49.8	22.583	-0.213623
49.9	21.9727	-0.305176
50	22.583	-0.152588
50.1	22.8882	-5.31006
50.2	10.9863	-5.15747
50.3	-31.1279	-5.31006
50.4	-56.4575	-5.18799
50.5	-56.7627	-5.27954
50.6	-56.1523	-5.24902
50.7	-55.8472	-5.27954
50.8	-56.4575	-5.15747
50.9	-57.373	-5.27954
51	-56.7627	-5.24902
51.1	-57.6782	-5.15747
51.2	-57.6782	-5.34058
51.3	-57.373	-5.12695
51.4	-57.0679	-5.34058
51.5	-57.9834	-5.18799
51.6	-58.2886	-5.21851
51.7	-57.9834	-5.27954
51.8	-57.373	-5.24902
51.9	-57.0679	-5.18799
52	-57.373	-5.31006
52.1	-57.373	-5.18799
52.2	-56.7627	-5.27954
52.3	-57.0679	-5.21851
52.4	-57.0679	-5.27954
52.5	-57.0679	-5.21851
52.6	-56.4575	-5.31006
52.7	-56.1523	-5.18799
52.8	-56.7627	-5.27954
52.9	-55.8472	-5.24902
53	-55.8472	-5.18799
53.1	-56.4575	-5.24902
53.2	-56.1523	-5.21851
53.3	-55.8472	-5.27954
53.4	-56.4575	-5.24902
53.5	-57.0679	-5.24902
53.6	-57.6782	-5.27954
53.7	-57.373	-5.21851
53.8	-57.9834	-5.18799
53.9	-58.2886	-5.31006
54	-58.5938	-5.15747
54.1	-58.2886	-5.27954
54.2	-57.6782	-5.15747
54.3	-56.7627	-5.21851
54.4	-57.6782	-5.27954
54.5	-57.9834	-5.18799
54.6	-57.6782	-5.34058
54.7	-58.8989	-5.18799
54.8	-58.5938	-5.31006
54.9	-57.373	-5.15747
55	-57.6782	-5.31006
55.1	-57.9834	-5.18799
55.2	-57.6782	-5.27954
55.3	-58.2886	-5.21851
55.4	-57.9834	-5.18799
55.5	-57.373	-5.24902
55.6	-57.0679	-5.18799
55.7	-57.0679	-5.21851
55.8	-56.7627	-5.27954
55.9	-56.4575	-5.12695
56	-56.7627	-5.27954
56.1	-57.9834	-5.15747
56.2	-58.2886	-5.27954
56.3	-57.9834	-5.18799
56.4	-57.373	-5.27954
56.5	-57.0679	-5.18799
56.6	-58.2886	-5.31006
56.7	-58.5938	-5.15747
56.8	-57.6782	-5.34058
56.9	-57.373	-5.18799
57	-56.7627	-5.31006
57.1	-57.0679	-5.15747
57.2	-57.0679	-5.34058
57.3	-57.373	-5.15747
57.4	-57.9834	-5.34058
57.5	-57.9834	-5.15747
57.6	-57.9834	-5.37109
57.7	-57.373	-5.15747
57.8	-56.4575	-5.31006
57.9	-57.373	-5.15747
58	-58.8989	-5.31006
58.1	-58.5938	-5.15747
58.2	-57.6782	-5.31006
58.3	-57.6782	-5.18799
58.4	-57.373	-5.27954
58.5	-58.2886	-5.21851
58.6	-59.5093	-5.27954
58.7	-59.2041	-5.18799
58.8	-58.5938	-5.27954
58.9	-57.6782	-5.27954
59	-57.9834	-5.15747
59.1	-58.2886	-5.18799
59.2	-58.2886	-5.34058
59.3	-58.2886	-5.15747
59.4	-58.2886	-5.34058
59.5	-58.5938	-5.15747
59.6	-58.8989	-5.31006
59.7	-58.5938	-5.12695
59.8	-57.0679	-5.34058
59.9	-57.9834	-5.18799
60	-59.2041	-10.2844
60.1	-60.4248	-10.1318
60.2	-79.6509	-10.3149
60.3	-114.441	-10.1624
60.4	-124.817	-10.2234
60.5	-123.901	-10.2234
60.6	-124.512	-10.1013
60.7	-124.512	-10.2844
60.8	-124.817	-10.1624
60.9	-123.901	-10.1624
61	-122.681	-10.2844
61.1	-123.596	-10.1624
61.2	-122.681	-10.2539
61.3	-122.986	-10.1624
61.4	-122.986	-10.2234
61.5	-122.681	-10.1929
61.6	-122.681	-10.1318
61.7	-122.681	-10.2539
61.8	-122.375	-10.1318
61.9	-122.07	-10.3455
62	-122.681	-10.1318
62.1	-122.986	-10.2844
62.2	-123.901	-10.2234
62.3	-123.596	-10.1624
62.4	-123.596	-10.2234
62.5	-123.596	-10.2234
62.6	-122.986	-10.1624
62.7	-124.207	-10.2844
62.8	-122.681	-10.0708
62.9	-122.07	-10.2844
63	-122.07	-10.1013
63.1	-122.07	-10.2539
63.2	-121.46	-10.1318
63.3	-122.681	-10.2234
63.4	-124.512	-10.1318
63.5	-122.986	-10.2844
63.6	-121.765	-10.1318
63.7	-122.07	-10.3149
63.8	-122.986	-10.1624
63.9	-124.207	-10.2539
64	-125.732	-10.2234
64.1	-125.732	-10.1318
64.2	-122.681	-10.1929
64.3	-123.596	-10.2844
64.4	-124.817	-10.1929
64.5	-122.07	-10.1013
64.6	-121.765	-10.2844
64.7	-123.291	-10.1318
64.8	-123.291	-10.2844
64.9	-123.596	-10.1318
65	-124.207	-10.2234
65.1	-122.681	-10.1318
65.2	-121.46	-10.1929
65.3	-122.986	-10.1624
65.4	-123.291	-10.1624
65.5	-121.155	-10.3149
65.6	-119.629	-10.1624
65.7	-119.324	-10.2234
65.8	-122.07	-10.2844
65.9	-123.291	-10.1624
66	-124.207	-10.1624
66.1	-124.207	-10.2539
66.2	-123.291	-10.2844
66.3	-122.986	-10.1318
66.4	-122.681	-10.1929
66.5	-123.596	-10.2539
66.6	-122.986	-10.1624
66.7	-122.07	-10.1624
66.8	-120.239	-10.2844
66.9	-119.629	-10.1318
67	-118.713	-10.1318
67.1	-119.934	-10.2539
67.2	-121.155	-10.1624
67.3	-122.375	-10.2539
67.4	-123.291	-10.1624
67.5	-121.765	-10.2234
67.6	-124.512	-10.1624
67.7	-123.596	-10.1929
67.8	-121.155	-10.2234
67.9	-122.375	-10.1624
68	-122.681	-10.2844
68.1	-121.155	-10.1929
68.2	-117.798	-10.2844
68.3	-118.408	-10.1624
68.4	-120.544	-10.2844
68.5	-122.07	-10.1624
68.6	-121.765	-10.2234
68.7	-121.46	-10.1929
68.8	-121.46	-10.1929
68.9	-120.239	-10.2234
69	-119.324	-10.2234
69.1	-122.986	-10.2234
69.2	-126.038	-10.1929
69.3	-124.817	-10.2234
69.4	-122.681	-10.1624
69.5	-122.07	-10.2234
69.6	-123.291	-10.1624
69.7	-123.291	-10.2539
69.8	-123.596	-10.1318
69.9	-123.901	-10.2539
70	-124.207	-10.1318
70.1	-124.817	-15.2893
70.2	-137.024	-15.1367
70.3	-163.269	-15.2283
70.4	-173.645	-15.1367
70.5	-173.34	-15.2588
70.6	-177.002	-15.1978
70.7	-175.476	-15.2588
70.8	-176.086	-15.1672
70.9	-179.443	-15.2588
71	-178.833	-15.1978
71.1	-178.223	-15.1367
71.2	-178.833	-15.2893
71.3	-180.969	-15.1367
71.4	-181.274	-15.2893
71.5	-178.833	-15.1062
71.6	-173.035	-15.2588
71.7	-171.814	-15.1978
71.8	-176.086	-15.1978
71.9	-180.054	-15.2588
72	-176.086	-15.1672
72.1	-171.204	-15.2588
72.2	-173.645	-15.1978
72.3	-174.255	-15.1367
72.4	-173.95	-15.1978
72.5	-177.002	-15.1672
72.6	-174.866	-15.1978
72.7	-170.593	-15.1672
72.8	-171.204	-15.1978
72.9	-173.645	-15.1672
73	-175.781	-15.2893
73.1	-173.645	-15.1978
73.2	-169.983	-15.1367
73.3	-172.424	-15.2893
73.4	-170.898	-15.1367
73.5	-172.119	-15.2588
73.6	-174.255	-15.1672
73.7	-175.781	-15.2283
73.8	-174.866	-15.1672
73.9	-173.645	-15.1978
74	-175.171	-15.1978
74.1	-172.424	-15.1978
74.2	-171.204	-15.2588
74.3	-172.729	-15.1978
74.4	-172.424	-15.2283
74.5	-172.119	-15.1978
74.6	-171.204	-15.1367
74.7	-167.847	-15.3198
74.8	-171.509	-15.1672
74.9	-173.645	-15.2893
75	-177.307	-15.1672
75.1	-179.443	-15.2588
75.2	-177.002	-15.1672
75.3	-174.255	-15.1367
75.4	-175.781	-15.2588
75.5	-173.34	-15.1367
75.6	-177.002	-15.2893
75.7	-179.443	-15.1367
75.8	-178.223	-15.3198
75.9	-177.307	-15.1367
76	-176.392	-15.2893
76.1	-175.781	-15.1062
76.2	-175.476	-15.2283
76.3	-171.204	-15.1672
76.4	-171.814	-15.2588
76.5	-176.697	-15.1978
76.6	-178.528	-15.1978
76.7	-176.392	-15.1978
76.8	-179.749	-15.2283
76.9	-177.917	-15.1672
77	-176.697	-15.2283
77.1	-179.138	-15.1062
77.2	-176.086	-15.3198
77.3	-174.866	-15.0757
77.4	-177.612	-15.3198
77.5	-177.307	-15.1062
77.6	-175.781	-15.2588
77.7	-173.95	-15.1978
77.8	-176.086	-15.1367
77.9	-175.476	-15.3198
78	-175.476	-15.1367
78.1	-173.34	-15.1978
78.2	-171.509	-15.2283
78.3	-174.561	-15.1367
78.4	-174.255	-15.1978
78.5	-174.866	-15.1672
78.6	-176.697	-15.1672
78.7	-174.866	-15.2283
78.8	-173.035	-15.1672
78.9	-175.781	-15.2283
79	-176.392	-15.1978
79.1	-175.171	-15.1672
79.2	-176.086	-15.2283
79.3	-177.612	-15.1978
79.4	-176.086	-15.1672
79.5	-176.086	-15.3503
79.6	-176.392	-15.1367
79.7	-179.138	-15.2588
79.8	-179.443	-15.1367
79.9	-178.833	-15.2283
80	-180.054	-15.1672
80.1	-180.054	-20.2026
80.2	-179.443	-20.1721
80.3	-190.125	-20.2332
80.4	-210.571	-20.2026
80.5	-216.675	-20.1111
80.6	-215.759	-20.2942
80.7	-211.487	-20.1721
80.8	-210.571	-20.1721
80.9	-212.097	-20.2637
81	-211.792	-20.2026
81.1	-215.759	-20.1721
81.2	-220.032	-20.2026
81.3	-217.896	-20.2026
81.4	-215.759	-20.2026
81.5	-213.013	-20.1721
81.6	-213.928	-20.1111
81.7	-213.928	-20.2637
81.8	-210.876	-20.1721
81.9	-210.876	-20.2026
82	-213.623	-20.2026
82.1	-211.487	-20.2637
82.2	-210.876	-20.1416
82.3	-211.792	-20.2026
82.4	-209.961	-20.2637
82.5	-208.13	-20.1416
82.6	-209.351	-20.2637
82.7	-211.182	-20.3247
82.8	-213.623	-20.1721
82.9	-211.792	-20.1721
83	-210.571	-20.2942
83.1	-213.318	-20.2332
83.2	-210.266	-20.1111
83.3	-206.299	-20.2332
83.4	-207.825	-20.3247
83.5	-206.604	-20.2637
83.6	-206.604	-20.1721
83.7	-213.318	-20.1416
83.8	-213.013	-20.3247
83.9	-205.994	-20.1416
84	-204.468	-20.1721
84.1	-205.383	-20.2637
84.2	-203.857	-20.1416
84.3	-207.825	-20.1721
84.4	-206.604	-20.2637
84.5	-204.773	-20.2332
84.6	-209.961	-20.1416
84.7	-215.149	-20.2942
84.8	-211.182	-20.1416
84.9	-209.351	-20.2942
85	-216.064	-20.1111
85.1	-215.454	-20.2332
85.2	-206.604	-20.1721
85.3	-204.468	-20.2637
85.4	-207.214	-20.1416
85.5	-210.876	-20.2637
85.6	-216.675	-20.2026
85.7	-213.013	-20.2332
85.8	-209.351	-20.1416
85.9	-209.961	-20.1721
86	-206.909	-20.1721
86.1	-205.688	-20.2026
86.2	-207.825	-20.2332
86.3	-211.487	-20.2332
86.4	-207.825	-20.2332
86.5	-210.266	-20.1721
86.6	-213.928	-20.2637
86.7	-215.149	-20.1721
86.8	-209.351	-20.2026
86.9	-207.825	-20.1721
87	-207.825	-20.1416
87.1	-209.656	-20.2637
87.2	-208.74	-20.1721
87.3	-204.468	-20.2332
87.4	-201.416	-20.1721
87.5	-201.721	-20.2332
87.6	-208.13	-20.2026
87.7	-209.045	-20.2026
87.8	-209.656	-20.1416
87.9	-209.351	-20.2942
88	-208.13	-20.1416
88.1	-208.13	-20.2637
88.2	-212.402	-20.1416
88.3	-211.487	-20.2637
88.4	-205.688	-20.1416
88.5	-205.994	-20.2026
88.6	-204.773	-20.1416
88.7	-207.214	-20.1721
88.8	-206.299	-20.2637
88.9	-205.688	-20.1111
89	-204.163	-20.1416
89.1	-202.942	-20.2637
89.2	-211.487	-20.1111
89.3	-214.233	-20.2026
89.4	-212.708	-20.2637
89.5	-207.214	-20.1416
89.6	-201.111	-20.2332
89.7	-203.247	-20.1111
89.8	-209.045	-20.2637
89.9	-208.74	-20.1416
90	-205.383	-25.2991
90.1	-205.994	-25.116
90.2	-222.778	-25.2991
90.3	-238.647	-25.116
90.4	-236.206	-25.177
90.5	-230.713	-25.2075
90.6	-227.966	-25.177
90.7	-226.135	-25.177
90.8	-233.154	-25.177
90.9	-239.868	-25.2075
91	-237.427	-25.0854
91.1	-232.849	-25.177
91.2	-228.271	-25.177
91.3	-226.44	-25.2686
91.4	-228.271	-25.1465
91.5	-231.018	-25.238
91.6	-230.408	-25.238
91.7	-234.07	-25.1465
91.8	-237.732	-25.177
91.9	-234.07	-25.1465
92	-233.459	-25.238
92.1	-230.713	-25.177
92.2	-235.596	-25.2686
92.3	-238.342	-25.177
92.4	-234.985	-25.1465
92.5	-234.07	-25.2686
92.6	-228.577	-25.177
92.7	-226.44	-25.116
92.8	-230.408	-25.2686
92.9	-227.051	-25.1465
93	-230.103	-25.177
93.1	-231.323	-25.238
93.2	-228.882	-25.1465
93.3	-228.882	-25.2991
93.4	-231.628	-25.116
93.5	-230.103	-25.2686
93.6	-226.135	-25.177
93.7	-229.187	-25.238
93.8	-227.356	-25.2075
93.9	-224.915	-25.1465
94	-228.882	-25.3296
94.1	-230.408	-25.116
94.2	-231.018	-25.2991
94.3	-234.07	-25.177
94.4	-237.122	-25.177
94.5	-237.732	-25.238
94.6	-238.647	-25.1465
94.7	-231.323	-25.2991
94.8	-225.83	-25.1465
94.9	-227.661	-25.2075
95	-229.797	-25.1465
95.1	-230.103	-25.238
95.2	-229.797	-25.238
95.3	-225.22	-25.116
95.4	-224.304	-25.3296
95.5	-231.628	-25.116
95.6	-232.544	-25.2991
95.7	-223.389	-25.1465
95.8	-221.863	-25.177
95.9	-221.863	-25.177
96	-223.694	-25.2075
96.1	-225.525	-25.2686
96.2	-221.252	-25.116
96.3	-225.22	-25.2075
96.4	-230.713	-25.2991
96.5	-229.797	-25.1465
96.6	-228.271	-25.2686
96.7	-228.882	-25.1465
96.8	-227.661	-25.2075
96.9	-226.135	-25.2075
97	-222.168	-25.238
97.1	-221.558	-25.177
97.2	-223.083	-25.2075
97.3	-224.609	-25.1465
97.4	-227.356	-25.238
97.5	-225.525	-25.1465
97.6	-226.746	-25.177
97.7	-231.323	-25.238
97.8	-233.459	-25.177
97.9	-230.103	-25.177
98	-227.051	-25.177
98.1	-226.746	-25.116
98.2	-231.628	-25.3296
98.3	-229.187	-25.116
98.4	-229.187	-25.2075
98.5	-232.239	-25.2686
98.6	-227.661	-25.116
98.7	-230.103	-25.116
98.8	-233.765	-25.2991
98.9	-232.849	-25.177
99	-231.323	-25.1465
99.1	-226.44	-25.2686
99.2	-223.389	-25.177
99.3	-224.304	-25.116
99.4	-224.915	-25.3296
99.5	-224.915	-25.177
99.6	-224.304	-25.1465
99.7	-227.966	-25.2686
99.8	-231.934	-25.2075
99.9	-231.018	-25.116
100	-226.135	-25.2686
100.1	-226.44	-25.177
100.2	-229.797	-30.1514
100.3	-233.765	-30.2124
100.4	-237.732	-30.1819
100.5	-234.68	-30.2429
100.6	-236.816	-30.0598
100.7	-237.122	-30.2429
100.8	-235.291	-30.2429
100.9	-242.004	-30.0903
101	-249.939	-30.2429
101.1	-246.277	-30.1514
101.2	-242.004	-30.1208
101.3	-239.563	-30.2124
101.4	-232.544	-30.1208
101.5	-231.323	-30.2734
101.6	-234.985	-30.1208
101.7	-236.816	-30.0903
101.8	-242.004	-30.2429
101.9	-247.498	-30.2429
102	-243.53	-30.1514
102.1	-241.699	-30.0903
102.2	-245.361	-30.2124
102.3	-240.173	-30.2429
102.4	-240.479	-30.0903
102.5	-240.784	-30.2124
102.6	-237.427	-30.2124
102.7	-237.427	-30.1208
102.8	-235.901	-30.2429
102.9	-233.459	-30.1514
103	-240.479	-30.0903
103.1	-246.277	-30.1819
103.2	-242.004	-30.1819
103.3	-243.53	-30.1819
103.4	-244.446	-30.2429
103.5	-239.563	-30.1514
103.6	-240.173	-30.1208
103.7	-237.122	-30.1819
103.8	-232.849	-30.2124
103.9	-233.765	-30.0903
104	-237.732	-30.2124
104.1	-236.511	-30.1514
104.2	-231.323	-30.2124
104.3	-233.765	-30.2124
104.4	-237.732	-30.0903
104.5	-234.985	-30.2429
104.6	-232.544	-30.1208
104.7	-226.44	-30.2734
104.8	-221.863	-30.0903
104.9	-225.525	-30.2429
105	-228.271	-30.0903
105.1	-227.051	-30.304
105.2	-231.323	-30.1208
105.3	-234.07	-30.2429
105.4	-231.323	-30.1514
105.5	-228.577	-30.1514
105.6	-234.985	-30.2734
105.7	-240.479	-30.0903
105.8	-232.239	-30.2429
105.9	-230.713	-30.0903
106	-231.018	-30.1208
106.1	-232.849	-30.1819
106.2	-230.408	-30.2429
106.3	-230.713	-30.2429
106.4	-231.628	-30.1819
106.5	-233.459	-30.1819
106.6	-229.797	-30.1819
106.7	-223.694	-30.1208
106.8	-225.83	-30.2124
106.9	-231.628	-30.1819
107	-233.459	-30.1514
107.1	-229.187	-30.1514
107.2	-224.915	-30.2429
107.3	-227.661	-30.2429
107.4	-231.934	-30.1514
107.5	-231.323	-30.1819
107.6	-231.628	-30.1819
107.7	-228.882	-30.1208
107.8	-227.051	-30.1208
107.9	-230.103	-30.2734
108	-231.323	-30.2124
108.1	-235.901	-30.1208
108.2	-235.596	-30.0903
108.3	-232.544	-30.2124
108.4	-233.459	-30.2124
108.5	-227.661	-30.1514
108.6	-224.915	-30.1514
108.7	-226.135	-30.2429
108.8	-230.103	-30.0903
108.9	-235.291	-30.1819
109	-231.323	-30.2429
109.1	-226.135	-30.0903
109.2	-227.661	-30.2429
109.3	-232.544	-30.0903
109.4	-237.122	-30.304
109.5	-231.018	-30.1514
109.6	-227.356	-30.1208
109.7	-234.07	-30.1819
109.8	-233.154	-30.1819
109.9	-232.849	-30.2734
110	-231.323	-35.0952
110.1	-231.934	-35.1868
110.2	-241.699	-35.2173
110.3	-249.329	-35.1868
110.4	-240.784	-35.1563
110.5	-234.375	-35.1868
110.6	-235.901	-35.2173
110.7	-238.342	-35.1868
110.8	-233.459	-35.1257
110.9	-235.901	-35.2478
111	-237.427	-35.1868
111.1	-234.07	-35.0647
111.2	-232.239	-35.0952
111.3	-238.647	-35.2783
111.4	-238.342	-35.1563
111.5	-234.985	-35.2173
111.6	-231.018	-35.0952
111.7	-226.44	-35.2173
111.8	-228.882	-35.1563
111.9	-232.849	-35.1868
112	-231.323	-35.1563
112.1	-227.356	-35.1257
112.2	-228.271	-35.2478
112.3	-231.628	-35.1257
112.4	-229.187	-35.2478
112.5	-227.051	-35.0647
112.6	-232.849	-35.1868
112.7	-235.596	-35.1257
112.8	-233.765	-35.3088
112.9	-233.765	-35.0647
113	-235.596	-35.1868
113.1	-231.628	-35.1257
113.2	-222.778	-35.2783
113.3	-225.525	-35.1257
113.4	-225.22	-35.1868
113.5	-226.135	-35.1257
113.6	-226.44	-35.2478
113.7	-230.408	-35.1563
113.8	-233.765	-35.2173
113.9	-228.577	-35.0952
114	-226.746	-35.2783
114.1	-222.168	-35.1563
114.2	-220.337	-35.2173
114.3	-225.22	-35.0952
114.4	-230.103	-35.2478
114.5	-232.239	-35.1257
114.6	-230.713	-35.2173
114.7	-229.797	-35.1257
114.8	-226.44	-35.1868
114.9	-229.492	-35.1257
115	-227.356	-35.1563
115.1	-227.051	-35.1257
115.2	-230.713	-35.2173
115.3	-230.103	-35.1257
115.4	-227.356	-35.1257
115.5	-224.609	-35.2783
115.6	-222.473	-35.1257
115.7	-224.915	-35.1868
115.8	-229.187	-35.0952
115.9	-228.882	-35.1868
116	-226.746	-35.2173
116.1	-227.051	-35.0952
116.2	-219.727	-35.2173
116.3	-215.454	-35.1868
116.4	-219.116	-35.1868
116.5	-222.473	-35.1868
116.6	-224.304	-35.1868
116.7	-222.778	-35.1257
116.8	-219.421	-35.1868
116.9	-223.999	-35.1257
117	-226.44	-35.2783
117.1	-230.713	-35.0952
117.2	-230.103	-35.1868
117.3	-221.558	-35.1257
117.4	-220.947	-35.1563
117.5	-221.558	-35.1563
117.6	-223.389	-35.1257
117.7	-220.642	-35.2173
117.8	-218.506	-35.2173
117.9	-223.389	-35.1257
118	-227.356	-35.1563
118.1	-221.558	-35.2478
118.2	-219.727	-35.1257
118.3	-222.778	-35.1563
118.4	-219.727	-35.2173
118.5	-218.811	-35.0952
118.6	-220.947	-35.3088
118.7	-226.746	-35.0647
118.8	-226.135	-35.0952
118.9	-219.421	-35.2783
119	-222.168	-35.1563
119.1	-227.356	-35.0952
119.2	-225.83	-35.2783
119.3	-222.778	-35.1257
119.4	-219.727	-35.0952
119.5	-221.558	-35.2783
119.6	-219.727	-35.1257
119.7	-216.98	-35.2478
119.8	-222.168	-35.1563
119.9	-221.558	-35.2478
120	-220.947	-35.1257
120.1	-220.337	-40.2832
120.2	-221.558	-40.1001
120.3	-226.44	-40.2527
120.4	-227.966	-40.1306
120.5	-224.304	-40.1611
120.6	-220.642	-40.1306
120.7	-217.59	-40.2222
120.8	-217.896	-40.1306
120.9	-220.032	-40.2222
121	-221.252	-40.1917
121.1	-224.915	-40.2222
121.2	-223.694	-40.1306
121.3	-214.233	-40.2222
121.4	-211.182	-40.1917
121.5	-220.032	-40.1306
121.6	-222.473	-40.1917
121.7	-216.064	-40.1306
121.8	-212.708	-40.2222
121.9	-214.539	-40.1306
122	-213.013	-40.1917
122.1	-211.487	-40.1611
122.2	-216.675	-40.1306
122.3	-217.896	-40.3137
122.4	-210.266	-40.1306
122.5	-210.571	-40.1001
122.6	-215.454	-40.2527
122.7	-213.013	-40.2222
122.8	-208.74	-40.1306
122.9	-205.688	-40.1306
123	-209.351	-40.2527
123.1	-208.74	-40.1917
123.2	-209.351	-40.1306
123.3	-214.539	-40.1306
123.4	-219.421	-40.1001
123.5	-216.675	-40.1306
123.6	-209.351	-40.2527
123.7	-205.383	-40.2527
123.8	-204.468	-40.1306
123.9	-201.721	-40.1306
124	-205.994	-40.1611
124.1	-211.487	-40.2222
124.2	-214.233	-40.2832
124.3	-210.571	-40.1917
124.4	-201.721	-40.1001
124.5	-205.688	-40.1001
124.6	-209.351	-40.2222
124.7	-209.961	-40.2527
124.8	-206.909	-40.1917
124.9	-201.416	-40.1611
125	-206.909	-40.0696
125.1	-204.163	-40.2527
125.2	-202.026	-40.2222
125.3	-205.994	-40.1001
125.4	-203.857	-40.1611
125.5	-198.364	-40.1917
125.6	-201.721	-40.1611
125.7	-206.909	-40.1611
125.8	-205.994	-40.2832
125.9	-206.909	-40.1306
126	-204.773	-40.2832
126.1	-202.637	-40.1306
126.2	-201.721	-40.1306
126.3	-197.449	-40.2832
126.4	-200.806	-40.1001
126.5	-195.923	-40.2527
126.6	-194.702	-40.1306
126.7	-201.111	-40.1611
126.8	-209.961	-40.2222
126.9	-209.045	-40.1611
127	-207.52	-40.2222
127.1	-209.656	-40.1306
127.2	-206.604	-40.1611
127.3	-205.078	-40.2527
127.4	-206.299	-40.1306
127.5	-201.721	-40.3137
127.6	-198.364	-40.1306
127.7	-198.669	-40.2222
127.8	-196.228	-40.1611
127.9	-198.059	-40.2222
128	-204.773	-40.1306
128.1	-206.604	-40.2832
128.2	-206.604	-40.1001
128.3	-206.909	-40.2222
128.4	-205.688	-40.1611
128.5	-205.688	-40.2222
128.6	-207.825	-40.2222
128.7	-209.351	-40.2222
128.8	-206.604	-40.1917
128.9	-202.026	-40.1611
129	-200.5	-40.2527
129.1	-206.909	-40.1001
129.2	-210.876	-40.2527
129.3	-206.909	-40.1917
129.4	-201.721	-40.1611
129.5	-202.026	-40.1917
129.6	-203.857	-40.1917
129.7	-201.721	-40.1917
129.8	-202.332	-40.1001
129.9	-204.468	-40.1917
130	-202.942	-40.1917
130.1	-202.332	-45.0745
130.2	-204.163	-45.2576
130.3	-208.13	-45.105
130.4	-200.806	-45.1355
130.5	-194.092	-45.166
130.6	-194.092	-45.1355
130.7	-199.28	-45.2271
130.8	-198.059	-45.0745
130.9	-192.871	-45.166
131	-196.533	-45.105
131.1	-198.975	-45.1355
131.2	-197.754	-45.166
131.3	-198.059	-45.1355
131.4	-193.176	-45.105
131.5	-193.176	-45.1355
131.6	-193.176	-45.2271
131.7	-195.313	-45.105
131.8	-193.787	-45.2271
131.9	-191.65	-45.0745
132	-194.702	-45.166
132.1	-197.754	-45.105
132.2	-197.144	-45.1355
132.3	-191.956	-45.166
132.4	-192.871	-45.105
132.5	-189.819	-45.1965
132.6	-186.157	-45.1965
132.7	-189.209	-45.0745
132.8	-188.599	-45.2881
132.9	-191.65	-45.105
133	-189.819	-45.1965
133.1	-189.209	-45.0745
133.2	-191.956	-45.166
133.3	-191.04	-45.1965
133.4	-190.125	-45.105
133.5	-187.988	-45.2576
133.6	-184.937	-45.105
133.7	-183.716	-45.2271
133.8	-187.073	-45.105
133.9	-186.768	-45.2881
134	-181.274	-45.105
134.1	-180.664	-45.1965
134.2	-180.969	-45.105
134.3	-181.885	-45.1965
134.4	-180.359	-45.0745
134.5	-181.885	-45.2576
134.6	-180.969	-45.1355
134.7	-180.664	-45.1965
134.8	-184.326	-45.0745
134.9	-190.735	-45.1355
135	-190.735	-45.1965
135.1	-185.242	-45.0745
135.2	-187.683	-45.1965
135.3	-196.533	-45.105
135.4	-195.923	-45.2271
135.5	-187.378	-45.1355
135.6	-184.631	-45.0745
135.7	-186.157	-45.1965
135.8	-184.631	-45.166
135.9	-181.58	-45.105
136	-184.021	-45.2271
136.1	-187.988	-45.1355
136.2	-184.631	-45.1355
136.3	-179.443	-45.1355
136.4	-179.138	-45.1355
136.5	-184.021	-45.1355
136.6	-185.852	-45.105
136.7	-184.937	-45.2881
136.8	-180.359	-45.1355
136.9	-178.833	-45.0745
137	-179.749	-45.0745
137.1	-180.664	-45.2271
137.2	-180.054	-45.166
137.3	-176.086	-45.0745
137.4	-176.697	-45.2576
137.5	-179.138	-45.105
137.6	-173.95	-45.1965
137.7	-177.917	-45.1965
137.8	-184.326	-45.0745
137.9	-178.528	-45.166
138	-175.476	-45.2576
138.1	-175.171	-45.166
138.2	-174.866	-45.0745
138.3	-171.509	-45.105
138.4	-176.392	-45.2881
138.5	-178.833	-45.166
138.6	-176.086	-45.105
138.7	-177.002	-45.105
138.8	-177.612	-45.105
138.9	-177.002	-45.2271
139	-176.697	-45.1355
139.1	-173.34	-45.105
139.2	-173.34	-45.1965
139.3	-177.612	-45.1965
139.4	-182.8	-45.105
139.5	-184.631	-45.105
139.6	-175.171	-45.2271
139.7	-170.593	-45.2576
139.8	-175.476	-45.105
139.9	-177.612	-45.0745
140	-175.781	-45.2271
140.1	-178.528	-45.105
140.2	-177.917	-50.2014
140.3	-171.814	-50.1099
140.4	-171.509	-50.2319
140.5	-171.204	-50.1709
140.6	-172.729	-50.1099
140.7	-175.171	-50.1709
140.8	-170.288	-50.2014
140.9	-171.204	-50.0793
141	-173.34	-50.2625
141.1	-165.405	-50.0793
141.2	-160.217	-50.2014
141.3	-165.71	-50.1404
141.4	-165.1	-50.2319
141.5	-166.626	-50.1404
141.6	-169.983	-50.2319
141.7	-166.016	-50.1404
141.8	-169.373	-50.0793
141.9	-173.95	-50.1709
142	-165.71	-50.1709
142.1	-159.607	-50.2014
142.2	-156.25	-50.1099
142.3	-155.64	-50.1709
142.4	-164.795	-50.2319
142.5	-163.879	-50.1099
142.6	-161.438	-50.2625
142.7	-160.828	-50.1404
142.8	-159.912	-50.2319
142.9	-159.302	-50.0793
143	-155.945	-50.2319
143.1	-159.607	-50.0793
143.2	-157.471	-50.2014
143.3	-152.893	-50.1099
143.4	-148.315	-50.2014
143.5	-149.841	-50.1709
143.6	-149.536	-50.0488
143.7	-148.01	-50.2625
143.8	-148.926	-50.1099
143.9	-149.841	-50.1099
144	-149.841	-50.1404
144.1	-149.841	-50.1709
144.2	-151.367	-50.1099
144.3	-154.114	-50.2014
144.4	-156.86	-50.1404
144.5	-153.503	-50.1404
144.6	-152.283	-50.1099
144.7	-149.536	-50.2014
144.8	-149.841	-50.1404
144.9	-154.114	-50.1404
145	-148.01	-50.2014
145.1	-150.452	-50.0793
145.2	-155.64	-50.2014
145.3	-152.283	-50.1099
145.4	-153.503	-50.2319
145.5	-154.419	-50.1099
145.6	-150.757	-50.1404
145.7	-154.114	-50.2014
145.8	-156.86	-50.1099
145.9	-152.893	-50.2014
146	-145.874	-50.1099
146.1	-147.705	-50.2319
146.2	-143.738	-50.2014
146.3	-144.653	-50.1099
146.4	-149.841	-50.1404
146.5	-144.653	-50.2625
146.6	-137.024	-50.1404
146.7	-137.024	-50.1404
146.8	-141.602	-50.0793
146.9	-144.958	-50.1404
147	-145.874	-50.2625
147.1	-142.212	-50.1404
147.2	-135.193	-50.0793
147.3	-137.329	-50.2014
147.4	-143.433	-50.2319
147.5	-144.348	-50.1099
147.6	-143.433	-50.2319
147.7	-146.179	-50.1709
147.8	-148.621	-50.0793
147.9	-146.179	-50.2319
148	-142.822	-50.0793
148.1	-137.939	-50.2319
148.2	-138.245	-50.1404
148.3	-140.381	-50.1709
148.4	-142.822	-50.2014
148.5	-143.433	-50.1404
148.6	-143.127	-50.0793
148.7	-139.771	-50.2319
148.8	-140.991	-50.2319
148.9	-145.264	-50.0488
149	-146.484	-50.2319
149.1	-142.517	-50.2014
149.2	-142.517	-50.0793
149.3	-141.602	-50.1709
149.4	-139.771	-50.2014
149.5	-137.939	-50.1099
149.6	-133.362	-50.2014
149.7	-137.939	-50.2319
149.8	-137.634	-50.1099
149.9	-134.888	-50.0793
150	-136.108	-50.2625
150.1	-138.55	-50.1404
150.2	-139.465	-55.0537
150.3	-137.939	-55.2979
150.4	-138.55	-55.0842
150.5	-140.381	-55.2368
150.6	-135.803	-55.1758
150.7	-131.226	-55.1453
150.8	-130.92	-55.2063
150.9	-134.583	-55.1453
151	-130.92	-55.1147
151.1	-128.479	-55.2063
151.2	-127.869	-55.2063
151.3	-128.174	-55.0842
151.4	-131.226	-55.2063
151.5	-135.193	-55.1453
151.6	-134.888	-55.1758
151.7	-131.836	-55.0842
151.8	-129.395	-55.2368
151.9	-126.343	-55.1453
152	-123.901	-55.0842
152.1	-121.46	-55.2368
152.2	-123.596	-55.0842
152.3	-124.817	-55.2063
152.4	-126.038	-55.1758
152.5	-124.207	-55.1758
152.6	-116.882	-55.1147
152.7	-115.051	-55.1453
152.8	-115.967	-55.1758
152.9	-115.356	-55.0537
153	-114.441	-55.2673
153.1	-114.746	-55.1147
153.2	-115.356	-55.1147
153.3	-115.662	-55.2368
153.4	-117.798	-55.1453
153.5	-114.441	-55.0842
153.6	-114.746	-55.2673
153.7	-113.22	-55.1453
153.8	-112.61	-55.0842
153.9	-114.746	-55.2063
154	-111.084	-55.1758
154.1	-107.117	-55.1147
154.2	-110.168	-55.1453
154.3	-113.22	-55.1453
154.4	-111.389	-55.1453
154.5	-108.337	-55.1147
154.6	-112.305	-55.2063
154.7	-111.389	-55.0537
154.8	-108.032	-55.2063
154.9	-111.694	-55.1147
155	-111.389	-55.2063
155.1	-108.643	-55.2368
155.2	-106.506	-55.0842
155.3	-103.149	-55.2063
155.4	-103.76	-55.1758
155.5	-104.98	-55.0842
155.6	-106.201	-55.2368
155.7	-104.37	-55.2063
155.8	-104.98	-55.0537
155.9	-106.812	-55.1453
156	-105.591	-55.2368
156.1	-103.149	-55.1758
156.2	-105.591	-55.1147
156.3	-107.422	-55.1453
156.4	-99.4873	-55.1758
156.5	-94.6045	-55.0842
156.6	-98.2666	-55.1147
156.7	-102.844	-55.2368
156.8	-104.065	-55.0842
156.9	-102.234	-55.2368
157	-101.013	-55.1453
157.1	-102.539	-55.2063
157.2	-101.013	-55.0842
157.3	-102.844	-55.2673
157.4	-104.98	-55.0537
157.5	-100.403	-55.2979
157.6	-101.013	-55.0842
157.7	-104.98	-55.1758
157.8	-102.539	-55.2063
157.9	-98.2666	-55.0537
158	-97.0459	-55.2673
158.1	-96.1304	-55.1758
158.2	-95.8252	-55.0842
158.3	-97.9614	-55.2368
158.4	-99.7925	-55.1147
158.5	-99.7925	-55.2368
158.6	-97.6563	-55.0842
158.7	-97.9614	-55.1758
158.8	-96.1304	-55.1147
158.9	-89.4165	-55.2368
159	-86.6699	-55.1147
159.1	-91.2476	-55.2368
159.2	-97.3511	-55.1453
159.3	-99.4873	-55.1147
159.4	-93.0786	-55.1758
159.5	-90.332	-55.1147
159.6	-95.2148	-55.1453
159.7	-98.5718	-55.1147
159.8	-93.0786	-55.0842
159.9	-89.7217	-55.1758
160	-96.7407	-55.1147
160.1	-99.4873	-60.2112
160.2	-98.877	-60.1196
160.3	-96.1304	-60.2112
160.4	-91.5527	-60.0891
160.5	-87.8906	-60.0891
160.6	-83.6182	-60.1807
160.7	-84.5337	-60.2112
160.8	-83.9233	-60.1501
160.9	-79.3457	-60.0891
161	-77.2095	-60.0891
161.1	-79.0405	-60.2112
161.2	-83.0078	-60.1196
161.3	-81.4819	-60.0891
161.4	-79.0405	-60.0891
161.5	-81.7871	-60.2722
161.6	-82.3975	-60.1501
161.7	-82.0923	-60.1501
161.8	-78.125	-60.1196
161.9	-76.5991	-60.0891
162	-77.5146	-60.1196
162.1	-79.0405	-60.1807
162.2	-76.5991	-60.1501
162.3	-72.6318	-60.1196
162.4	-75.3784	-60.2417
162.5	-77.8198	-60.0891
162.6	-74.4629	-60.1807
162.7	-74.4629	-60.1501
162.8	-75.6836	-60.1501
162.9	-73.8525	-60.1807
163	-75.6836	-60.0891
163.1	-77.2095	-60.1807
163.2	-69.8853	-60.1807
163.3	-68.0542	-60.0586
163.4	-69.5801	-60.1807
163.5	-66.5283	-60.0891
163.6	-65.6128	-60.0891
163.7	-68.3594	-60.2112
163.8	-70.8008	-60.0281
163.9	-71.106	-60.2722
164	-69.2749	-60.1196
164.1	-67.1387	-60.1501
164.2	-66.2231	-60.1807
164.3	-64.3921	-60.0586
164.4	-62.561	-60.2112
164.5	-59.5093	-60.1807
164.6	-63.7817	-60.1196
164.7	-66.2231	-60.2112
164.8	-64.0869	-60.1196
164.9	-65.3076	-60.1196
165	-61.6455	-60.2112
165.1	-59.5093	-60.1196
165.2	-60.4248	-60.0891
165.3	-63.1714	-60.2417
165.4	-61.9507	-60.1807
165.5	-63.1714	-60.1196
165.6	-59.8145	-60.0891
165.7	-57.6782	-60.1807
165.8	-61.6455	-60.1501
165.9	-61.6455	-60.0586
166	-60.73	-60.2417
166.1	-61.6455	-60.1196
166.2	-62.561	-60.0891
166.3	-62.8662	-60.1807
166.4	-61.9507	-60.2112
166.5	-58.5938	-60.2417
166.6	-55.542	-60.1196
166.7	-54.6265	-60.0586
166.8	-52.1851	-60.2112
166.9	-52.7954	-60.1807
167	-56.7627	-60.0891
167.1	-57.373	-60.0891
167.2	-55.542	-60.0891
167.3	-54.3213	-60.2417
167.4	-58.2886	-60.0891
167.5	-58.8989	-60.0281
167.6	-55.542	-60.2417
167.7	-56.7627	-60.1807
167.8	-57.6782	-60.0891
167.9	-57.373	-60.2722
168	-54.6265	-60.0586
168.1	-57.373	-60.2112
168.2	-56.7627	-60.1501
168.3	-52.1851	-60.0891
168.4	-54.9316	-60.2112
168.5	-54.9316	-60.1501
168.6	-54.6265	-60.1196
168.7	-55.2368	-60.2112
168.8	-50.354	-60.0891
168.9	-46.6919	-60.2112
169	-49.4385	-60.1501
169.1	-54.3213	-60.1501
169.2	-50.9644	-60.1807
169.3	-52.1851	-60.1501
169.4	-52.1851	-60.1196
169.5	-49.1333	-60.1501
169.6	-50.6592	-60.0891
169.7	-50.354	-60.2112
169.8	-51.8799	-60.0586
169.9	-51.8799	-60.2417
170	-46.9971	-60.1501
170.1	-47.9126	-65.0635
170.2	-50.354	-65.1245
170.3	-51.8799	-65.1855
170.4	-53.1006	-65.033
170.5	-50.354	-65.1855
170.6	-47.9126	-65.0635
170.7	-48.5229	-65.1245
170.8	-47.9126	-65.094
170.9	-46.9971	-65.094
171	-49.1333	-65.2161
171.1	-46.9971	-65.0635
171.2	-46.6919	-65.1855
171.3	-44.5557	-65.094
171.4	-43.6401	-65.094
171.5	-44.8608	-65.1245
171.6	-42.1143	-65.1855
171.7	-45.166	-65.0635
171.8	-45.7764	-65.1855
171.9	-42.7246	-65.1245
172	-40.5884	-65.094
172.1	-40.5884	-65.1245
172.2	-39.6729	-65.1245
172.3	-38.4521	-65.2161
172.4	-38.7573	-65.1245
172.5	-39.3677	-65.0635
172.6	-39.6729	-65.155
172.7	-36.0107	-65.094
172.8	-36.0107	-65.1245
172.9	-38.147	-65.155
173	-37.8418	-65.033
173.1	-39.3677	-65.2161
173.2	-37.8418	-65.094
173.3	-37.2314	-65.033
173.4	-40.8936	-65.2161
173.5	-42.1143	-65.155
173.6	-40.2832	-65.033
173.7	-36.3159	-65.2161
173.8	-33.8745	-65.0635
173.9	-34.1797	-65.1245
174	-33.8745	-65.1245
174.1	-34.1797	-65.0635
174.2	-36.9263	-65.2161
174.3	-34.4849	-65.0635
174.4	-31.7383	-65.155
174.5	-32.959	-65.1245
174.6	-33.8745	-65.033
174.7	-32.6538	-65.1855
174.8	-32.0435	-65.1245
174.9	-32.6538	-65.1245
175	-33.8745	-65.1245
175.1	-32.3486	-65.155
175.2	-30.2124	-65.1245
175.3	-29.9072	-65.094
175.4	-32.6538	-65.1855
175.5	-32.959	-65.094
175.6	-32.959	-65.094
175.7	-33.8745	-65.155
175.8	-34.79	-65.155
175.9	-31.4331	-65.0635
176	-29.9072	-65.094
176.1	-31.4331	-65.2161
176.2	-30.2124	-65.094
176.3	-29.6021	-65.1245
176.4	-29.9072	-65.2161
176.5	-31.1279	-65.094
176.6	-31.7383	-65.094
176.7	-32.0435	-65.155
176.8	-31.4331	-65.1855
176.9	-32.3486	-65.094
177	-28.6865	-65.094
177.1	-27.1606	-65.2161
177.2	-30.8228	-65.1245
177.3	-28.6865	-65.0635
177.4	-24.7192	-65.094
177.5	-25.3296	-65.1855
177.6	-24.7192	-65.155
177.7	-24.7192	-65.1245
177.8	-24.1089	-65.033
177.9	-25.0244	-65.1855
178	-25.6348	-65.1855
178.1	-26.2451	-65.0635
178.2	-24.4141	-65.0635
178.3	-23.8037	-65.0635
178.4	-27.1606	-65.094
178.5	-26.8555	-65.1855
178.6	-25.6348	-65.2466
178.7	-25.6348	-65.0635
178.8	-25.9399	-65.0635
178.9	-25.6348	-65.1855
179	-25.3296	-65.1855
179.1	-26.2451	-65.1245
179.2	-27.1606	-65.033
179.3	-28.6865	-65.1245
179.4	-29.6021	-65.2466
179.5	-26.8555	-65.1245
179.6	-26.2451	-65.155
179.7	-28.0762	-65.0635
179.8	-28.6865	-65.033
179.9	-27.1606	-65.094
180	-24.1089	-65.094
180.1	-22.583	-70.1904
180.2	-25.3296	-70.0989
180.3	-28.3813	-70.0378
180.4	-27.4658	-70.2209
180.5	-23.8037	-70.0684
180.6	-24.7192	-70.1294
180.7	-25.9399	-70.2515
180.8	-24.1089	-70.0378
180.9	-21.3623	-70.0989
181	-20.4468	-70.1904
181.1	-21.9727	-70.0989
181.2	-23.4985	-70.0989
181.3	-21.9727	-70.1294
181.4	-20.4468	-70.1904
181.5	-19.8364	-70.0378
181.6	-19.8364	-70.0989
181.7	-20.4468	-70.2515
181.8	-19.5313	-70.1294
181.9	-22.583	-70.0989
182	-24.7192	-70.0378
182.1	-21.3623	-70.0378
182.2	-18.3105	-70.1904
182.3	-18.6157	-70.1904
182.4	-19.5313	-70.1904
182.5	-21.0571	-70.0684
182.6	-19.8364	-70.0684
182.7	-19.8364	-70.1294
182.8	-21.6675	-70.1904
182.9	-21.6675	-70.1294
183	-19.8364	-70.0684
183.1	-18.6157	-70.0684
183.2	-18.3105	-70.1294
183.3	-18.9209	-70.0684
183.4	-18.3105	-70.0989
183.5	-18.3105	-70.1599
183.6	-17.0898	-70.1599
183.7	-17.395	-70.0684
183.8	-16.4795	-70.0684
183.9	-13.4277	-70.2209
184	-14.3433	-70.0989
184.1	-18.0054	-70.0989
184.2	-18.6157	-70.1904
184.3	-16.4795	-70.0684
184.4	-15.8691	-70.2515
184.5	-15.564	-70.1294
184.6	-16.1743	-70.0989
184.7	-14.9536	-70.0989
184.8	-14.9536	-70.1904
184.9	-15.8691	-70.0684
185	-15.564	-70.1904
185.1	-17.395	-70.1599
185.2	-21.3623	-70.0684
185.3	-20.1416	-70.2515
185.4	-17.0898	-70.0378
185.5	-18.3105	-70.1904
185.6	-19.5313	-70.0989
185.7	-15.8691	-70.0684
185.8	-15.8691	-70.2209
185.9	-18.9209	-70.0684
186	-16.4795	-70.0684
186.1	-15.8691	-70.0073
186.2	-17.7002	-70.1599
186.3	-15.564	-70.1904
186.4	-13.7329	-70.1599
186.5	-14.0381	-70.0378
186.6	-16.1743	-70.0378
186.7	-17.395	-70.1294
186.8	-15.564	-70.1599
186.9	-14.0381	-70.2515
187	-16.4795	-70.1599
187.1	-15.8691	-70.1294
187.2	-15.8691	-70.0989
187.3	-14.9536	-70.0684
187.4	-14.3433	-70.1904
187.5	-17.0898	-70.1599
187.6	-18.0054	-70.1294
187.7	-20.4468	-70.0378
187.8	-18.6157	-70.1294
187.9	-15.8691	-70.0378
188	-16.1743	-70.0684
188.1	-16.7847	-70.0378
188.2	-17.0898	-70.0989
188.3	-19.8364	-70.0684
188.4	-20.4468	-70.0378
188.5	-17.0898	-70.0989
188.6	-16.7847	-70.1294
188.7	-15.2588	-70.2209
188.8	-14.9536	-70.1294
188.9	-16.4795	-70.1294
189	-15.8691	-70.0684
189.1	-15.564	-70.1294
189.2	-18.0054	-70.0684
189.3	-20.4468	-70.1294
189.4	-16.1743	-70.1904
189.5	-15.2588	-70.1294
189.6	-16.1743	-70.0684
189.7	-15.564	-70.1294
189.8	-15.2588	-70.2209
189.9	-14.9536	-70.1599
190	-16.7847	-70.1599
190.1	-15.564	-70.0378
190.2	-14.0381	-75.1038
190.3	-16.7847	-75.1648
190.4	-21.0571	-75.0732
190.5	-20.752	-75.1343
190.6	-18.6157	-75.1038
190.7	-18.6157	-75.0427
190.8	-18.3105	-75.2258
190.9	-17.395	-75.0427
191	-16.7847	-75.1953
191.1	-15.2588	-75.0427
191.2	-16.4795	-75.1648
191.3	-17.0898	-75.0732
191.4	-15.2588	-75.1648
191.5	-13.4277	-75.0732
191.6	-13.1226	-75.0427
191.7	-17.0898	-75.1343
191.8	-14.6484	-75.0427
191.9	-12.207	-75.1038
192	-11.5967	-75.1038
192.1	-12.5122	-75.0732
192.2	-14.0381	-75.0122
192.3	-14.0381	-75.1648
192.4	-14.6484	-75.1038
192.5	-13.1226	-75.0122
192.6	-13.4277	-75.2258
192.7	-13.1226	-75.0122
192.8	-11.2915	-75.0732
192.9	-13.1226	-75.1343
193	-14.6484	-75.0427
193.1	-13.7329	-75.1648
193.2	-12.8174	-75.0427
193.3	-13.7329	-75.1038
193.4	-16.1743	-75.1648
193.5	-15.2588	-75.1038
193.6	-15.2588	-75.0122
193.7	-13.7329	-75.2563
193.8	-12.207	-75.0122
193.9	-15.2588	-75.0427
194	-14.3433	-75.0732
194.1	-11.5967	-75.1343
194.2	-10.6812	-75.0427
194.3	-12.207	-75.0732
194.4	-13.1226	-75.1038
194.5	-12.8174	-75.0122
194.6	-12.5122	-75.2258
194.7	-11.2915	-75.0427
194.8	-11.2915	-75.0427
194.9	-12.207	-75.1953
195	-13.1226	-75.0732
195.1	-12.5122	-75.1953
195.2	-12.5122	-75.0427
195.3	-14.9536	-75.0732
195.4	-14.3433	-75.1343
195.5	-12.5122	-75.0122
195.6	-11.9019	-75.1343
195.7	-13.1226	-75.0732
195.8	-14.9536	-75.1038
195.9	-13.4277	-75.1343
196	-12.207	-75.0427
196.1	-12.5122	-75.2258
196.2	-12.207	-75.0122
196.3	-10.9863	-75.2258
196.4	-10.6812	-75.0427
196.5	-11.9019	-75.1343
196.6	-13.4277	-75.0732
196.7	-16.1743	-75.1953
196.8	-15.2588	-75.1038
196.9	-11.5967	-75.0732
197	-10.376	-75.0732
197.1	-10.376	-75.1343
197.2	-12.5122	-75.0427
197.3	-13.4277	-75.1648
197.4	-13.1226	-75.0732
197.5	-11.9019	-75.1343
197.6	-12.207	-75.0732
197.7	-13.1226	-75.0732
197.8	-14.0381	-75.1953
197.9	-15.564	-74.9817
198	-18.0054	-75.1953
198.1	-19.5313	-75.0732
198.2	-16.1743	-75.0122
198.3	-12.8174	-75.0427
198.4	-13.4277	-75.1953
198.5	-12.8174	-75.1038
198.6	-12.5122	-75.0427
198.7	-13.7329	-75.0122
198.8	-15.8691	-75.1648
198.9	-18.0054	-75.0732
199	-17.7002	-75.0732
199.1	-15.2588	-75.0427
199.2	-12.207	-75.0732
199.3	-12.8174	-75.1648
199.4	-14.0381	-75.0122
199.5	-12.207	-75.1648
199.6	-11.9019	-75.0427
199.7	-11.5967	-75.1343
199.8	-14.0381	-75.0122
199.9	-14.3433	-75.1648
200	-14.6484	-74.9817
200.1	-14.6484	-75.1648
200.2	-13.4277	-75.0122
200.3	-14.0381	-75.0732
200.4	-14.6484	-75.1648
200.5	-14.3433	-75.0122
200.6	-14.3433	-75.1038
200.7	-12.8174	-79.9866
200.8	-12.8174	-80.1086
200.9	-15.2588	-80.0171
201	-16.7847	-80.1086
201.1	-16.1743	-80.0171
201.2	-17.7002	-80.1697
201.3	-17.7002	-80.0476
201.4	-16.7847	-80.1392
201.5	-16.7847	-79.9866
201.6	-14.9536	-80.2002
201.7	-15.8691	-80.0781
201.8	-17.7002	-80.1697
201.9	-17.0898	-80.0476
202	-14.3433	-80.2002
202.1	-14.9536	-80.0171
202.2	-16.4795	-80.1697
202.3	-16.7847	-80.1392
202.4	-18.6157	-80.0476
202.5	-18.0054	-80.0476
202.6	-14.3433	-80.2002
202.7	-13.4277	-80.1392
202.8	-15.8691	-80.0476
202.9	-17.0898	-80.0171
203	-14.9536	-80.0781
203.1	-12.8174	-80.0476
203.2	-13.1226	-80.0476
203.3	-12.5122	-80.1086
203.4	-14.0381	-80.1697
203.5	-13.7329	-80.1392
203.6	-12.207	-80.1697
203.7	-12.5122	-79.9866
203.8	-12.5122	-80.1392
203.9	-11.9019	-80.0781
204	-12.8174	-80.0781
204.1	-12.5122	-80.1697
204.2	-11.9019	-80.1086
204.3	-13.7329	-80.0476
204.4	-14.0381	-80.2002
204.5	-13.7329	-80.1697
204.6	-13.7329	-80.1086
204.7	-14.6484	-79.9866
204.8	-14.9536	-80.1086
204.9	-14.6484	-80.1086
205	-13.4277	-80.0781
205.1	-11.5967	-79.9866
205.2	-12.8174	-80.0781
205.3	-12.8174	-80.2002
205.4	-11.2915	-80.0781
205.5	-11.5967	-80.0476
205.6	-10.0708	-80.0171
205.7	-10.376	-80.1697
205.8	-12.5122	-80.0171
205.9	-14.3433	-80.2002
206	-14.3433	-80.0476
206.1	-15.564	-80.0781
206.2	-13.4277	-80.0781
206.3	-11.9019	-80.0476
206.4	-13.7329	-80.0781
206.5	-14.0381	-80.2002
206.6	-13.4277	-80.0476
206.7	-13.4277	-80.1086
206.8	-13.1226	-80.1697
206.9	-14.0381	-80.0781
207	-14.3433	-80.0171
207.1	-13.1226	-80.1392
207.2	-13.7329	-80.1697
207.3	-14.3433	-80.1086
207.4	-14.0381	-80.0171
207.5	-10.9863	-80.0476
207.6	-12.8174	-80.0476
207.7	-13.7329	-80.1697
207.8	-11.5967	-80.1392
207.9	-11.9019	-80.0781
208	-15.2588	-79.9866
208.1	-15.8691	-80.0476
208.2	-14.3433	-80.1086
208.3	-14.0381	-80.1697
208.4	-14.9536	-80.1086
208.5	-16.1743	-80.0781
208.6	-15.2588	-80.1086
208.7	-14.0381	-80.1392
208.8	-15.564	-80.0476
208.9	-13.7329	-80.1086
209	-11.9019	-80.0171
209.1	-10.9863	-80.0476
209.2	-13.4277	-80.1392
209.3	-14.6484	-80.1697
209.4	-11.9019	-80.0476
209.5	-11.2915	-80.0171
209.6	-10.6812	-80.0476
209.7	-11.5967	-80.1086
