ATF	1.0
7	3     
"AcquisitionMode=Gap Free"
"Comment="
"YTop=10000,1000"
"YBottom=-10000,-1000"
"SweepStartTimesMS=0.000"
"SignalsExported=Im_Scaled,10_mv"
"Signals="	"Im_Scaled"	"10_mv"
"Time (s)"	"Trace #1 (pA)"	"Trace #1 (mV)"
0	567.932	19.6533
0.1	572.815	19.7144
0.2	572.205	19.7449
0.3	571.594	19.7449
0.4	566.711	19.6533
0.5	565.796	19.7144
0.6	566.406	19.7144
0.7	565.186	19.6838
0.8	566.406	19.6838
0.9	569.763	19.7144
1	570.984	19.7754
1.1	573.12	19.7754
1.2	578.918	19.6228
1.3	575.256	19.6838
1.4	573.425	19.7449
1.5	580.444	19.8059
1.6	579.529	19.7449
1.7	579.224	19.6838
1.8	577.698	19.5923
1.9	570.679	19.7449
2	564.575	19.8059
2.1	563.354	19.7144
2.2	570.374	19.7449
2.3	575.562	19.7449
2.4	570.984	19.6533
2.5	573.12	19.5923
2.6	574.646	19.5923
2.7	576.172	19.6533
2.8	579.529	19.6533
2.9	579.834	19.7144
3	577.698	19.7754
3.1	576.172	19.7754
3.2	573.12	19.7754
3.3	573.73	19.6533
3.4	576.782	19.6838
3.5	582.581	19.6838
3.6	588.684	19.6838
3.7	585.327	19.7144
3.8	580.444	19.8059
3.9	580.444	19.7754
4	585.327	19.7144
4.1	579.834	19.5618
4.2	580.75	19.6533
4.3	581.36	19.7754
4.4	576.782	19.7754
4.5	577.698	19.6838
4.6	581.97	19.7144
4.7	581.97	19.6533
4.8	574.951	19.7754
4.9	573.73	19.6838
5	575.867	19.6533
5.1	578.918	19.8364
5.2	578.918	19.6838
5.3	581.055	19.5923
5.4	586.243	19.7754
5.5	582.275	19.7754
5.6	586.243	19.7754
5.7	590.82	19.5923
5.8	585.632	19.7144
5.9	585.022	19.8059
6	585.632	19.7754
6.1	581.055	19.6533
6.2	583.801	19.6838
6.3	585.632	19.7754
6.4	582.581	19.7144
6.5	581.97	19.6838
6.6	584.717	19.8059
6.7	584.717	19.6838
6.8	583.801	19.6533
6.9	583.496	19.8059
7	585.938	19.7754
7.1	590.21	19.6838
7.2	585.327	19.7754
7.3	583.191	19.6228
7.4	585.327	19.6228
7.5	582.581	19.8059
7.6	575.256	19.7449
7.7	576.172	19.6228
7.8	580.75	19.8059
7.9	581.665	19.7144
8	583.801	19.6228
8.1	587.158	19.7754
8.2	589.905	19.7144
8.3	586.548	19.7449
8.4	585.327	19.7449
8.5	586.853	19.7449
8.6	584.717	19.6533
8.7	581.665	19.7144
8.8	579.529	19.7144
8.9	584.412	19.6533
9	591.431	19.7449
9.1	589.905	19.7449
9.2	589.905	19.5923
9.3	592.041	19.8059
9.4	589.6	19.7754
9.5	591.431	19.6228
9.6	586.548	19.6228
9.7	581.36	19.7754
9.8	581.36	19.7754
9.9	582.581	19.6228
10	580.139	19.7754
10.1	584.412	19.7449
10.2	588.989	19.6838
10.3	591.736	14.74
10.4	559.387	14.74
10.5	474.243	14.6484
10.6	434.875	14.74
10.7	431.213	14.74
10.8	431.213	14.679
10.9	435.181	14.6179
11	440.369	14.74
11.1	445.251	14.7095
11.2	442.81	14.6484
11.3	439.758	14.7095
11.4	440.979	14.7705
11.5	438.538	14.7705
11.6	439.758	14.7705
11.7	447.083	14.74
11.8	448.303	14.6484
11.9	445.251	14.6179
12	440.979	14.74
12.1	440.369	14.801
12.2	443.42	14.74
12.3	445.557	14.7705
12.4	443.726	14.7705
12.5	446.472	14.74
12.6	443.726	14.679
12.7	433.044	14.74
12.8	436.401	14.74
12.9	440.369	14.801
13	439.453	14.74
13.1	441.284	14.7705
13.2	446.167	14.7705
13.3	446.167	14.74
13.4	444.031	14.6179
13.5	442.505	14.6179
13.6	445.251	14.7095
13.7	444.946	14.7095
13.8	444.031	14.7705
13.9	447.693	14.74
14	449.829	14.74
14.1	447.998	14.74
14.2	445.557	14.679
14.3	449.219	14.6484
14.4	452.271	14.679
14.5	449.219	14.74
14.6	447.693	14.7705
14.7	452.576	14.74
14.8	451.05	14.6484
14.9	444.336	14.6179
15	445.251	14.6179
15.1	450.745	14.679
15.2	450.134	14.7095
15.3	446.777	14.7705
15.4	446.167	14.7095
15.5	444.031	14.74
15.6	439.758	14.6484
15.7	442.81	14.679
15.8	444.031	14.74
15.9	442.81	14.7705
16	443.726	14.7705
16.1	439.148	14.6179
16.2	439.758	14.7705
16.3	441.284	14.6179
16.4	442.81	14.7705
16.5	447.388	14.801
16.6	449.524	14.6484
16.7	441.895	14.6179
16.8	442.505	14.6484
16.9	444.641	14.7705
17	446.472	14.801
17.1	444.641	14.74
17.2	440.979	14.7705
17.3	437.927	14.7095
17.4	437.927	14.7705
17.5	440.369	14.74
17.6	439.758	14.7705
17.7	440.369	14.801
17.8	440.063	14.74
17.9	442.505	14.679
18	448.303	14.7095
18.1	447.998	14.679
18.2	441.895	14.679
18.3	442.505	14.5874
18.4	443.115	14.6179
18.5	440.063	14.6484
18.6	438.843	14.6484
18.7	440.979	14.6484
18.8	443.42	14.6484
18.9	445.557	14.6484
19	444.336	14.6179
19.1	442.2	14.74
19.2	441.284	14.74
19.3	444.031	14.801
19.4	441.895	14.6484
19.5	440.674	14.6179
19.6	441.284	14.6484
19.7	442.81	14.8315
19.8	447.388	14.7705
19.9	450.134	14.679
20	449.524	14.6484
20.1	446.472	14.6484
20.2	447.083	9.70459
20.3	441.895	9.79614
20.4	374.451	9.73511
20.5	310.669	9.79614
20.6	299.072	9.79614
20.7	295.715	9.73511
20.8	296.936	9.70459
20.9	300.293	9.70459
21	300.598	9.67407
21.1	298.462	9.73511
21.2	299.377	9.70459
21.3	299.988	9.79614
21.4	300.903	9.76563
21.5	302.124	9.64355
21.6	301.819	9.61304
21.7	300.293	9.67407
21.8	301.514	9.76563
21.9	303.955	9.76563
22	303.955	9.64355
22.1	300.293	9.73511
22.2	298.767	9.79614
22.3	299.377	9.73511
22.4	299.988	9.61304
22.5	303.04	9.61304
22.6	302.429	9.67407
22.7	302.124	9.73511
22.8	302.429	9.76563
22.9	303.65	9.76563
23	306.396	9.76563
23.1	308.228	9.61304
23.2	305.481	9.70459
23.3	300.598	9.76563
23.4	302.124	9.64355
23.5	305.176	9.73511
23.6	305.786	9.73511
23.7	306.396	9.76563
23.8	306.091	9.70459
23.9	306.702	9.64355
24	303.345	9.61304
24.1	302.429	9.70459
24.2	303.04	9.79614
24.3	300.903	9.82666
24.4	299.377	9.70459
24.5	300.598	9.70459
24.6	300.293	9.61304
24.7	302.734	9.67407
24.8	304.871	9.73511
24.9	303.65	9.79614
25	301.208	9.79614
25.1	301.208	9.76563
25.2	304.26	9.70459
25.3	305.481	9.70459
25.4	306.702	9.64355
25.5	304.26	9.70459
25.6	299.683	9.73511
25.7	299.072	9.82666
25.8	299.072	9.76563
25.9	302.124	9.61304
26	302.734	9.61304
26.1	301.514	9.82666
26.2	302.429	9.73511
26.3	303.955	9.61304
26.4	303.04	9.70459
26.5	302.124	9.79614
26.6	298.767	9.70459
26.7	300.598	9.64355
26.8	301.514	9.64355
26.9	298.767	9.79614
27	300.903	9.79614
27.1	303.955	9.67407
27.2	304.871	9.61304
27.3	304.26	9.64355
27.4	306.091	9.70459
27.5	306.091	9.61304
27.6	305.176	9.64355
27.7	306.396	9.67407
27.8	304.26	9.64355
27.9	301.208	9.61304
28	303.345	9.64355
28.1	309.143	9.73511
28.2	308.533	9.82666
28.3	306.091	9.76563
28.4	300.903	9.67407
28.5	299.072	9.64355
28.6	304.871	9.64355
28.7	305.786	9.76563
28.8	306.702	9.79614
28.9	306.702	9.73511
29	303.955	9.61304
29.1	306.396	9.73511
29.2	308.838	9.76563
29.3	304.871	9.67407
29.4	304.565	9.61304
29.5	308.533	9.79614
29.6	306.702	9.79614
29.7	307.007	9.76563
29.8	307.617	9.73511
29.9	306.702	9.70459
30	308.533	9.64355
30.1	308.228	9.70459
30.2	305.786	4.82178
30.3	301.819	4.79126
30.4	256.348	4.69971
30.5	183.411	4.66919
30.6	162.964	4.66919
30.7	164.185	4.69971
30.8	163.879	4.66919
30.9	162.659	4.66919
31	162.659	4.85229
31.1	163.574	4.82178
31.2	162.659	4.79126
31.3	162.354	4.69971
31.4	163.879	4.69971
31.5	165.1	4.66919
31.6	164.49	4.60815
31.7	165.1	4.69971
31.8	162.354	4.79126
31.9	159.912	4.82178
32	160.828	4.76074
32.1	163.269	4.73022
32.2	164.49	4.73022
32.3	164.49	4.66919
32.4	163.574	4.69971
32.5	162.659	4.79126
32.6	160.828	4.82178
32.7	160.522	4.82178
32.8	161.133	4.79126
32.9	161.133	4.79126
33	161.743	4.82178
33.1	164.185	4.76074
33.2	164.795	4.79126
33.3	165.71	4.76074
33.4	164.49	4.73022
33.5	163.574	4.60815
33.6	165.71	4.66919
33.7	166.931	4.69971
33.8	165.1	4.69971
33.9	164.795	4.73022
34	163.574	4.76074
34.1	162.964	4.85229
34.2	161.438	4.76074
34.3	162.659	4.82178
34.4	164.185	4.82178
34.5	163.574	4.82178
34.6	163.879	4.76074
34.7	162.659	4.79126
34.8	161.743	4.79126
34.9	160.828	4.76074
35	163.574	4.73022
35.1	164.795	4.82178
35.2	163.269	4.82178
35.3	163.269	4.76074
35.4	164.795	4.79126
35.5	165.1	4.66919
35.6	164.795	4.60815
35.7	166.016	4.76074
35.8	165.1	4.76074
35.9	163.574	4.82178
36	165.1	4.79126
36.1	166.016	4.82178
36.2	166.321	4.82178
36.3	168.152	4.76074
36.4	165.71	4.76074
36.5	165.1	4.82178
36.6	166.016	4.79126
36.7	166.321	4.76074
36.8	166.321	4.79126
36.9	167.847	4.73022
37	168.762	4.66919
37.1	166.016	4.69971
37.2	165.405	4.82178
37.3	165.71	4.82178
37.4	166.321	4.76074
37.5	165.71	4.76074
37.6	165.71	4.69971
37.7	165.1	4.66919
37.8	166.321	4.66919
37.9	166.321	4.76074
38	166.626	4.79126
38.1	166.931	4.76074
38.2	165.405	4.69971
38.3	165.71	4.69971
38.4	167.542	4.69971
38.5	168.457	4.69971
38.6	170.288	4.76074
38.7	169.067	4.76074
38.8	168.152	4.79126
38.9	168.457	4.73022
39	168.152	4.79126
39.1	166.931	4.82178
39.2	167.236	4.79126
39.3	168.457	4.79126
39.4	167.236	4.85229
39.5	166.626	4.85229
39.6	167.542	4.76074
39.7	165.1	4.73022
39.8	164.49	4.66919
39.9	166.321	4.63867
40	167.236	4.69971
40.1	167.236	4.76074
40.2	166.321	-0.244141
40.3	163.574	-0.244141
40.4	128.174	-0.213623
40.5	58.2886	-0.305176
40.6	33.2642	-0.396729
40.7	34.1797	-0.274658
40.8	33.5693	-0.244141
40.9	33.5693	-0.274658
41	34.1797	-0.244141
41.1	33.8745	-0.213623
41.2	34.1797	-0.213623
41.3	34.1797	-0.274658
41.4	33.8745	-0.274658
41.5	33.8745	-0.305176
41.6	33.5693	-0.366211
41.7	33.8745	-0.305176
41.8	33.5693	-0.274658
41.9	33.8745	-0.305176
42	33.2642	-0.213623
42.1	33.5693	-0.183105
42.2	33.8745	-0.335693
42.3	33.5693	-0.335693
42.4	33.5693	-0.305176
42.5	33.5693	-0.335693
42.6	33.2642	-0.305176
42.7	33.2642	-0.305176
42.8	33.5693	-0.274658
42.9	33.2642	-0.274658
43	33.2642	-0.244141
43.1	33.2642	-0.213623
43.2	33.5693	-0.183105
43.3	33.2642	-0.183105
43.4	32.959	-0.244141
43.5	32.959	-0.183105
43.6	33.5693	-0.183105
43.7	34.1797	-0.244141
43.8	34.1797	-0.305176
43.9	33.5693	-0.244141
44	33.5693	-0.183105
44.1	33.5693	-0.274658
44.2	33.8745	-0.244141
44.3	33.5693	-0.183105
44.4	33.5693	-0.213623
44.5	33.5693	-0.305176
44.6	33.8745	-0.305176
44.7	34.1797	-0.274658
44.8	33.8745	-0.366211
44.9	33.5693	-0.335693
45	33.5693	-0.305176
45.1	33.8745	-0.305176
45.2	33.8745	-0.305176
45.3	33.8745	-0.244141
45.4	33.5693	-0.274658
45.5	33.8745	-0.335693
45.6	33.8745	-0.366211
45.7	34.1797	-0.213623
45.8	33.5693	-0.244141
45.9	33.5693	-0.244141
46	33.8745	-0.244141
46.1	34.1797	-0.183105
46.2	33.8745	-0.183105
46.3	34.1797	-0.244141
46.4	33.8745	-0.274658
46.5	34.1797	-0.244141
46.6	33.8745	-0.213623
46.7	33.8745	-0.244141
46.8	33.2642	-0.183105
46.9	33.2642	-0.152588
47	33.5693	-0.213623
47.1	33.8745	-0.213623
47.2	33.8745	-0.183105
47.3	33.8745	-0.213623
47.4	34.4849	-0.305176
47.5	33.8745	-0.335693
47.6	33.5693	-0.335693
47.7	33.8745	-0.335693
47.8	33.5693	-0.244141
47.9	33.8745	-0.213623
48	33.8745	-0.152588
48.1	33.8745	-0.244141
48.2	33.8745	-0.213623
48.3	33.2642	-0.213623
48.4	33.2642	-0.335693
48.5	33.5693	-0.366211
48.6	33.5693	-0.274658
48.7	34.1797	-0.274658
48.8	33.8745	-0.244141
48.9	34.1797	-0.305176
49	33.8745	-0.274658
49.1	34.1797	-0.274658
49.2	33.8745	-0.366211
49.3	33.5693	-0.305176
49.4	33.5693	-0.366211
49.5	33.5693	-0.335693
49.6	33.5693	-0.274658
49.7	33.2642	-0.213623
49.8	32.959	-0.183105
49.9	33.8745	-0.244141
50	34.1797	-0.183105
50.1	33.8745	-5.15747
50.2	20.1416	-5.18799
50.3	-40.8936	-5.24902
50.4	-81.4819	-5.24902
50.5	-83.9233	-5.18799
50.6	-83.9233	-5.34058
50.7	-84.2285	-5.31006
50.8	-85.144	-5.27954
50.9	-84.8389	-5.21851
51	-83.9233	-5.18799
51.1	-84.2285	-5.21851
51.2	-84.2285	-5.12695
51.3	-84.2285	-5.15747
51.4	-83.6182	-5.24902
51.5	-83.6182	-5.21851
51.6	-84.8389	-5.31006
51.7	-85.144	-5.27954
51.8	-86.3647	-5.34058
51.9	-85.7544	-5.21851
52	-85.4492	-5.18799
52.1	-85.144	-5.21851
52.2	-85.7544	-5.18799
52.3	-86.0596	-5.15747
52.4	-85.144	-5.12695
52.5	-85.144	-5.18799
52.6	-84.5337	-5.12695
52.7	-84.2285	-5.21851
52.8	-84.5337	-5.24902
52.9	-84.8389	-5.31006
53	-84.5337	-5.18799
53.1	-83.6182	-5.15747
53.2	-84.5337	-5.21851
53.3	-85.4492	-5.09644
53.4	-85.7544	-5.12695
53.5	-83.9233	-5.18799
53.6	-83.313	-5.18799
53.7	-83.313	-5.15747
53.8	-83.313	-5.15747
53.9	-84.2285	-5.15747
54	-84.8389	-5.12695
54.1	-83.313	-5.12695
54.2	-82.3975	-5.18799
54.3	-83.0078	-5.18799
54.4	-84.2285	-5.24902
54.5	-84.5337	-5.31006
54.6	-83.6182	-5.18799
54.7	-82.7026	-5.12695
54.8	-82.3975	-5.21851
54.9	-82.7026	-5.34058
55	-83.0078	-5.34058
55.1	-83.9233	-5.27954
55.2	-83.6182	-5.21851
55.3	-82.7026	-5.21851
55.4	-82.3975	-5.15747
55.5	-82.3975	-5.12695
55.6	-83.0078	-5.18799
55.7	-82.7026	-5.18799
55.8	-82.0923	-5.18799
55.9	-82.7026	-5.24902
56	-83.0078	-5.31006
56.1	-82.0923	-5.24902
56.2	-82.0923	-5.24902
56.3	-82.7026	-5.24902
56.4	-82.7026	-5.31006
56.5	-83.6182	-5.21851
56.6	-84.5337	-5.24902
56.7	-83.9233	-5.24902
56.8	-82.3975	-5.34058
56.9	-82.7026	-5.31006
57	-83.0078	-5.31006
57.1	-84.2285	-5.37109
57.2	-83.9233	-5.18799
57.3	-84.2285	-5.15747
57.4	-84.5337	-5.18799
57.5	-84.8389	-5.18799
57.6	-85.4492	-5.15747
57.7	-84.2285	-5.12695
57.8	-84.2285	-5.24902
57.9	-84.2285	-5.21851
58	-83.313	-5.24902
58.1	-82.0923	-5.27954
58.2	-81.1768	-5.27954
58.3	-81.1768	-5.27954
58.4	-83.6182	-5.31006
58.5	-85.144	-5.31006
58.6	-85.144	-5.21851
58.7	-84.2285	-5.21851
58.8	-83.6182	-5.21851
58.9	-84.2285	-5.15747
59	-84.2285	-5.12695
59.1	-83.9233	-5.18799
59.2	-83.9233	-5.18799
59.3	-84.5337	-5.18799
59.4	-84.5337	-5.18799
59.5	-84.5337	-5.24902
59.6	-83.9233	-5.21851
59.7	-83.313	-5.27954
59.8	-83.9233	-10.2844
59.9	-86.3647	-10.1624
60	-120.239	-10.1013
60.1	-169.983	-10.1624
60.2	-181.58	-10.2234
60.3	-182.8	-10.1624
60.4	-185.547	-10.1013
60.5	-186.157	-10.1929
60.6	-184.021	-10.1318
60.7	-183.411	-10.1318
60.8	-184.326	-10.1318
60.9	-184.631	-10.1318
61	-182.8	-10.1318
61.1	-183.105	-10.1318
61.2	-185.242	-10.1929
61.3	-188.904	-10.1624
61.4	-186.462	-10.1929
61.5	-182.8	-10.1929
61.6	-181.274	-10.1929
61.7	-180.664	-10.2234
61.8	-183.105	-10.2539
61.9	-183.411	-10.1929
62	-184.326	-10.1013
62.1	-186.157	-10.1318
62.2	-186.157	-10.2539
62.3	-186.157	-10.1624
62.4	-186.157	-10.1624
62.5	-186.462	-10.2539
62.6	-187.683	-10.1929
62.7	-184.021	-10.2844
62.8	-183.105	-10.3149
62.9	-185.547	-10.2844
63	-185.547	-10.1624
63.1	-184.326	-10.1624
63.2	-186.157	-10.1624
63.3	-185.242	-10.1318
63.4	-184.021	-10.2539
63.5	-184.326	-10.3455
63.6	-184.326	-10.2844
63.7	-187.073	-10.2844
63.8	-184.631	-10.3149
63.9	-184.937	-10.2844
64	-185.547	-10.2234
64.1	-185.852	-10.2234
64.2	-188.599	-10.1624
64.3	-188.599	-10.1318
64.4	-185.242	-10.1929
64.5	-184.631	-10.2844
64.6	-185.852	-10.2539
64.7	-188.904	-10.2844
64.8	-190.125	-10.3149
64.9	-188.904	-10.2539
65	-187.683	-10.1318
65.1	-187.988	-10.1929
65.2	-187.073	-10.1929
65.3	-186.768	-10.1318
65.4	-189.514	-10.1318
65.5	-190.125	-10.1624
65.6	-187.378	-10.1318
65.7	-187.378	-10.1624
65.8	-187.073	-10.1624
65.9	-188.293	-10.1318
66	-189.514	-10.1929
66.1	-190.125	-10.3455
66.2	-188.599	-10.1929
66.3	-184.937	-10.1624
66.4	-184.326	-10.1929
66.5	-184.021	-10.2844
66.6	-182.495	-10.1929
66.7	-184.937	-10.2234
66.8	-186.462	-10.2539
66.9	-184.326	-10.1318
67	-180.664	-10.1318
67.1	-181.58	-10.2234
67.2	-184.021	-10.2539
67.3	-183.105	-10.1929
67.4	-183.411	-10.1624
67.5	-185.242	-10.1013
67.6	-187.073	-10.1624
67.7	-189.209	-10.1929
67.8	-191.04	-10.1318
67.9	-189.514	-10.1318
68	-185.242	-10.1624
68.1	-184.937	-10.1318
68.2	-185.852	-10.1318
68.3	-187.378	-10.1624
68.4	-185.852	-10.1624
68.5	-182.8	-10.1318
68.6	-185.547	-10.1318
68.7	-187.683	-10.1929
68.8	-183.411	-10.1318
68.9	-180.054	-10.1318
69	-180.054	-10.1624
69.1	-182.495	-10.1318
69.2	-183.411	-10.1013
69.3	-186.768	-10.2234
69.4	-190.735	-10.1318
69.5	-186.768	-10.1624
69.6	-186.462	-10.1929
69.7	-191.345	-10.1624
69.8	-190.43	-10.1624
69.9	-187.683	-10.2234
70	-187.988	-10.3149
70.1	-187.378	-10.2844
70.2	-187.073	-10.3149
70.3	-185.547	-15.3198
70.4	-183.411	-15.2893
70.5	-206.604	-15.2588
70.6	-254.822	-15.2893
70.7	-270.081	-15.2588
70.8	-273.438	-15.2893
70.9	-273.743	-15.2588
71	-269.47	-15.1367
71.1	-266.724	-15.1367
71.2	-265.503	-15.1978
71.3	-267.944	-15.1367
71.4	-274.048	-15.1062
71.5	-272.522	-15.1672
71.6	-272.217	-15.1672
71.7	-274.353	-15.1978
71.8	-274.658	-15.2893
71.9	-274.658	-15.2893
72	-273.132	-15.2588
72.1	-272.827	-15.2283
72.2	-273.743	-15.1978
72.3	-272.217	-15.1978
72.4	-271.606	-15.2283
72.5	-274.048	-15.1367
72.6	-278.015	-15.1062
72.7	-276.489	-15.1978
72.8	-271.606	-15.2588
72.9	-267.029	-15.2588
73	-266.418	-15.1978
73.1	-268.86	-15.1062
73.2	-269.165	-15.1367
73.3	-273.743	-15.1978
73.4	-273.743	-15.2283
73.5	-269.47	-15.2893
73.6	-267.944	-15.2283
73.7	-267.639	-15.2283
73.8	-274.963	-15.1062
73.9	-281.067	-15.1367
74	-278.32	-15.2588
74.1	-274.963	-15.2283
74.2	-272.827	-15.1672
74.3	-271.912	-15.1672
74.4	-270.996	-15.1978
74.5	-273.743	-15.2283
74.6	-273.132	-15.2893
74.7	-274.353	-15.2588
74.8	-274.963	-15.2588
74.9	-271.301	-15.2588
75	-271.301	-15.1367
75.1	-274.353	-15.1367
75.2	-275.879	-15.1672
75.3	-273.743	-15.1367
75.4	-271.912	-15.2588
75.5	-271.606	-15.2893
75.6	-270.081	-15.2283
75.7	-271.606	-15.0757
75.8	-265.503	-15.2283
75.9	-264.282	-15.2893
76	-271.912	-15.1978
76.1	-271.301	-15.1672
76.2	-268.25	-15.1978
76.3	-264.282	-15.1978
76.4	-265.198	-15.2893
76.5	-272.827	-15.2893
76.6	-276.489	-15.2588
76.7	-273.743	-15.3198
76.8	-271.301	-15.2893
76.9	-272.522	-15.1978
77	-272.827	-15.1367
77.1	-271.912	-15.2283
77.2	-267.944	-15.2588
77.3	-269.775	-15.1978
77.4	-271.301	-15.1978
77.5	-271.301	-15.1672
77.6	-275.574	-15.0757
77.7	-277.405	-15.1672
77.8	-270.996	-15.1978
77.9	-270.996	-15.1367
78	-274.353	-15.1672
78.1	-270.996	-15.1978
78.2	-267.944	-15.1062
78.3	-271.912	-15.1367
78.4	-275.269	-15.1367
78.5	-277.405	-15.1978
78.6	-275.269	-15.1367
78.7	-271.912	-15.1978
78.8	-270.386	-15.2588
78.9	-268.555	-15.1062
79	-274.353	-15.1062
79.1	-276.184	-15.1672
79.2	-271.301	-15.1062
79.3	-267.944	-15.1672
79.4	-268.555	-15.2893
79.5	-271.301	-15.2893
79.6	-278.625	-15.2283
79.7	-280.457	-15.2283
79.8	-275.269	-15.2283
79.9	-274.658	-15.1062
80	-273.743	-15.1062
80.1	-270.386	-15.1367
80.2	-269.775	-20.2637
80.3	-275.269	-20.2637
80.4	-304.26	-20.2332
80.5	-338.44	-20.2026
80.6	-337.83	-20.1721
80.7	-339.966	-20.1416
80.8	-344.238	-20.1416
80.9	-338.135	-20.0806
81	-339.05	-20.1416
81.1	-342.102	-20.2637
81.2	-335.388	-20.2332
81.3	-334.778	-20.2332
81.4	-336.914	-20.1721
81.5	-340.271	-20.1416
81.6	-343.323	-20.2332
81.7	-338.44	-20.2942
81.8	-334.473	-20.2637
81.9	-341.492	-20.2026
82	-340.881	-20.1416
82.1	-338.135	-20.1111
82.2	-342.712	-20.2026
82.3	-345.154	-20.2637
82.4	-339.966	-20.2332
82.5	-337.219	-20.2026
82.6	-342.407	-20.1721
82.7	-342.102	-20.2026
82.8	-335.693	-20.1416
82.9	-333.862	-20.1416
83	-335.388	-20.2026
83.1	-333.862	-20.2026
83.2	-337.219	-20.1721
83.3	-347.9	-20.1416
83.4	-348.816	-20.2026
83.5	-341.492	-20.1111
83.6	-341.492	-20.1721
83.7	-338.135	-20.2332
83.8	-338.135	-20.2332
83.9	-336.914	-20.2637
84	-342.407	-20.2942
84.1	-346.985	-20.2332
84.2	-340.576	-20.2026
84.3	-336.914	-20.2332
84.4	-337.83	-20.2637
84.5	-335.693	-20.1416
84.6	-330.2	-20.2026
84.7	-331.116	-20.1721
84.8	-334.473	-20.1721
84.9	-337.83	-20.1721
85	-339.966	-20.1721
85.1	-338.44	-20.1416
85.2	-339.05	-20.1721
85.3	-340.271	-20.3247
85.4	-339.661	-20.2637
85.5	-338.745	-20.1416
85.6	-340.271	-20.1416
85.7	-331.421	-20.1416
85.8	-328.369	-20.1416
85.9	-337.219	-20.1721
86	-344.238	-20.0806
86.1	-342.102	-20.1721
86.2	-338.44	-20.2026
86.3	-339.661	-20.1416
86.4	-336.609	-20.1111
86.5	-337.83	-20.1721
86.6	-341.492	-20.1111
86.7	-341.797	-20.1111
86.8	-334.167	-20.1721
86.9	-331.116	-20.0806
87	-330.2	-20.1416
87.1	-332.947	-20.2332
87.2	-340.271	-20.1721
87.3	-334.473	-20.2026
87.4	-334.167	-20.2637
87.5	-336.914	-20.2942
87.6	-335.999	-20.1721
87.7	-344.238	-20.1721
87.8	-344.543	-20.1721
87.9	-341.492	-20.2942
88	-343.933	-20.2637
88.1	-342.712	-20.1416
88.2	-339.05	-20.1111
88.3	-341.187	-20.1721
88.4	-341.187	-20.2026
88.5	-336.914	-20.2637
88.6	-340.271	-20.2637
88.7	-341.492	-20.1111
88.8	-334.167	-20.1416
88.9	-335.693	-20.3247
89	-338.135	-20.2637
89.1	-339.966	-20.2332
89.2	-342.712	-20.2637
89.3	-345.459	-20.2332
89.4	-343.018	-20.2026
89.5	-343.018	-20.2942
89.6	-342.712	-20.2026
89.7	-339.661	-20.1721
89.8	-339.05	-20.2332
89.9	-330.505	-20.2942
90	-330.505	-20.2637
90.1	-327.759	-25.238
90.2	-329.59	-25.2075
90.3	-350.037	-25.238
90.4	-383.606	-25.3296
90.5	-397.034	-25.2686
90.6	-399.475	-25.2991
90.7	-397.949	-25.3296
90.8	-393.372	-25.238
90.9	-395.813	-25.2686
91	-393.982	-25.2686
91.1	-384.827	-25.116
91.2	-382.69	-25.0854
91.3	-401.306	-25.2075
91.4	-407.715	-25.177
91.5	-395.813	-25.2686
91.6	-388.184	-25.3296
91.7	-390.015	-25.1465
91.8	-390.32	-25.1465
91.9	-387.268	-25.1465
92	-387.878	-25.116
92.1	-386.658	-25.1465
92.2	-388.489	-25.177
92.3	-390.93	-25.1465
92.4	-394.592	-25.116
92.5	-395.813	-25.1465
92.6	-394.897	-25.116
92.7	-389.404	-25.1465
92.8	-384.827	-25.1465
92.9	-386.353	-25.116
93	-396.729	-25.177
93.1	-397.339	-25.177
93.2	-385.132	-25.116
93.3	-380.859	-25.238
93.4	-379.639	-25.2686
93.5	-379.028	-25.177
93.6	-377.502	-25.177
93.7	-375.977	-25.177
93.8	-381.47	-25.116
93.9	-379.333	-25.116
94	-383.301	-25.177
94.1	-388.794	-25.177
94.2	-391.235	-25.116
94.3	-386.353	-25.177
94.4	-378.723	-25.2686
94.5	-379.944	-25.2686
94.6	-382.996	-25.1465
94.7	-379.639	-25.177
94.8	-385.132	-25.116
94.9	-384.521	-25.177
95	-382.69	-25.3296
95.1	-381.165	-25.2075
95.2	-389.099	-25.116
95.3	-396.423	-25.177
95.4	-396.729	-25.238
95.5	-393.066	-25.2686
95.6	-384.216	-25.2991
95.7	-384.521	-25.2075
95.8	-382.385	-25.116
95.9	-380.249	-25.177
96	-383.911	-25.2686
96.1	-381.47	-25.2075
96.2	-375.977	-25.2686
96.3	-379.333	-25.2075
96.4	-381.165	-25.116
96.5	-380.249	-25.1465
96.6	-385.132	-25.2686
96.7	-393.677	-25.2686
96.8	-400.085	-25.2075
96.9	-398.254	-25.2075
97	-395.508	-25.116
97.1	-391.846	-25.1465
97.2	-388.184	-25.1465
97.3	-392.151	-25.0854
97.4	-395.508	-25.116
97.5	-386.658	-25.177
97.6	-383.606	-25.177
97.7	-381.775	-25.238
97.8	-381.165	-25.2991
97.9	-389.709	-25.2075
98	-394.897	-25.177
98.1	-383.301	-25.238
98.2	-390.93	-25.1465
98.3	-397.949	-25.1465
98.4	-396.118	-25.2075
98.5	-394.287	-25.1465
98.6	-387.268	-25.1465
98.7	-384.216	-25.177
98.8	-394.592	-25.2075
98.9	-394.287	-25.2075
99	-382.385	-25.2686
99.1	-378.418	-25.2991
99.2	-388.184	-25.238
99.3	-397.034	-25.116
99.4	-392.761	-25.177
99.5	-396.118	-25.116
99.6	-404.358	-25.238
99.7	-397.339	-25.2686
99.8	-392.761	-25.2686
99.9	-393.372	-25.2686
100	-391.235	-25.2075
100.1	-387.268	-25.1465
100.2	-383.911	-25.1465
100.3	-378.723	-30.304
100.4	-384.521	-30.0903
100.5	-408.02	-30.1208
100.6	-421.448	-30.304
100.7	-427.856	-30.1514
100.8	-427.246	-30.0903
100.9	-416.565	-30.2429
101	-415.039	-30.1514
101.1	-413.513	-30.0903
101.2	-409.851	-30.1819
101.3	-411.987	-30.1514
101.4	-424.805	-30.1514
101.5	-432.434	-30.2429
101.6	-430.298	-30.2124
101.7	-421.448	-30.0903
101.8	-406.189	-30.1514
101.9	-399.17	-30.2124
102	-402.222	-30.2734
102.1	-410.767	-30.1208
102.2	-419.006	-30.1514
102.3	-412.903	-30.1819
102.4	-407.715	-30.2429
102.5	-421.753	-30.2124
102.6	-433.35	-30.0903
102.7	-424.805	-30.1514
102.8	-416.87	-30.304
102.9	-411.987	-30.2124
103	-410.767	-30.0903
103.1	-414.734	-30.1208
103.2	-418.396	-30.2124
103.3	-412.292	-30.1819
103.4	-404.968	-30.1514
103.5	-405.273	-30.1819
103.6	-415.344	-30.1208
103.7	-419.922	-30.2429
103.8	-414.734	-30.2429
103.9	-415.649	-30.1208
104	-421.143	-30.0903
104.1	-415.649	-30.1208
104.2	-417.175	-30.1208
104.3	-415.955	-30.2124
104.4	-411.682	-30.2734
104.5	-422.974	-30.0903
104.6	-424.5	-30.1208
104.7	-405.884	-30.2429
104.8	-402.222	-30.2734
104.9	-407.104	-30.1514
105	-416.565	-30.1208
105.1	-422.668	-30.1514
105.2	-418.091	-30.0903
105.3	-412.598	-30.1208
105.4	-411.682	-30.1819
105.5	-417.48	-30.1514
105.6	-420.837	-30.1819
105.7	-417.175	-30.2734
105.8	-411.072	-30.2429
105.9	-415.039	-30.2124
106	-413.818	-30.2734
106.1	-413.513	-30.2124
106.2	-414.429	-30.2429
106.3	-407.715	-30.3345
106.4	-404.053	-30.2124
106.5	-403.137	-30.1514
106.6	-404.663	-30.1514
106.7	-401.001	-30.1208
106.8	-391.541	-30.0598
106.9	-403.137	-30.1208
107	-411.377	-30.0598
107.1	-413.818	-30.1208
107.2	-418.701	-30.1208
107.3	-420.837	-30.1514
107.4	-421.143	-30.1514
107.5	-406.494	-30.2734
107.6	-403.137	-30.2429
107.7	-412.292	-30.0903
107.8	-407.104	-30.1208
107.9	-416.565	-30.1514
108	-424.5	-30.0598
108.1	-421.753	-30.0903
108.2	-411.682	-30.1208
108.3	-404.358	-30.0598
108.4	-398.865	-30.1514
108.5	-411.072	-30.2429
108.6	-426.941	-30.2124
108.7	-420.837	-30.2124
108.8	-406.799	-30.1819
108.9	-404.358	-30.1208
109	-405.884	-30.0598
109.1	-398.865	-30.1208
109.2	-399.17	-30.1514
109.3	-401.917	-30.0598
109.4	-397.644	-30.1514
109.5	-393.677	-30.1514
109.6	-410.461	-30.1819
109.7	-415.039	-30.2429
109.8	-407.41	-30.2429
109.9	-408.02	-30.1514
110	-402.527	-30.0903
110.1	-398.56	-30.1819
110.2	-397.339	-35.1257
110.3	-395.813	-35.2783
110.4	-415.039	-35.1563
110.5	-424.194	-35.0647
110.6	-429.382	-35.0952
110.7	-446.167	-35.2478
110.8	-447.388	-35.2173
110.9	-435.181	-35.0952
111	-430.298	-35.1257
111.1	-421.448	-35.0952
111.2	-415.039	-35.1563
111.3	-417.48	-35.2478
111.4	-422.058	-35.1563
111.5	-420.227	-35.0952
111.6	-417.786	-35.1868
111.7	-419.922	-35.0342
111.8	-416.26	-35.0952
111.9	-411.987	-35.1257
112	-422.974	-35.1563
112.1	-431.824	-35.1868
112.2	-422.974	-35.2478
112.3	-418.701	-35.2478
112.4	-416.26	-35.1563
112.5	-426.331	-35.1868
112.6	-428.772	-35.0952
112.7	-422.363	-35.0952
112.8	-419.617	-35.1563
112.9	-418.091	-35.0952
113	-408.02	-35.1868
113.1	-403.748	-35.2783
113.2	-396.423	-35.2173
113.3	-394.287	-35.2478
113.4	-408.02	-35.1563
113.5	-409.546	-35.0952
113.6	-400.085	-35.2173
113.7	-404.053	-35.2783
113.8	-404.663	-35.1563
113.9	-394.592	-35.0952
114	-390.93	-35.1563
114.1	-400.085	-35.1257
114.2	-418.701	-35.1563
114.3	-419.922	-35.2783
114.4	-420.532	-35.2173
114.5	-414.734	-35.1257
114.6	-414.429	-35.0952
114.7	-417.175	-35.0952
114.8	-406.189	-35.1868
114.9	-405.273	-35.2478
115	-409.546	-35.2783
115.1	-416.26	-35.1868
115.2	-419.922	-35.0952
115.3	-409.546	-35.1257
115.4	-404.968	-35.0952
115.5	-409.851	-35.0952
115.6	-418.396	-35.1868
115.7	-408.936	-35.1868
115.8	-401.611	-35.2173
115.9	-412.598	-35.2173
116	-411.682	-35.1868
116.1	-407.104	-35.1868
116.2	-410.767	-35.2783
116.3	-415.649	-35.1563
116.4	-411.987	-35.1257
116.5	-396.423	-35.1257
116.6	-389.404	-35.0952
116.7	-394.592	-35.2478
116.8	-390.625	-35.2478
116.9	-388.489	-35.0952
117	-405.579	-35.0952
117.1	-415.955	-35.1257
117.2	-415.344	-35.1257
117.3	-407.104	-35.1868
117.4	-403.137	-35.2783
117.5	-406.799	-35.1868
117.6	-406.799	-35.1563
117.7	-407.104	-35.1257
117.8	-397.949	-35.1257
117.9	-389.404	-35.1257
118	-391.846	-35.1563
118.1	-389.404	-35.2173
118.2	-389.404	-35.1563
118.3	-396.423	-35.2173
118.4	-397.949	-35.2783
118.5	-392.761	-35.1563
118.6	-389.404	-35.1563
118.7	-393.066	-35.1257
118.8	-391.235	-35.1257
118.9	-397.034	-35.1257
119	-403.442	-35.1868
119.1	-409.241	-35.2783
119.2	-399.78	-35.1257
119.3	-390.625	-35.1257
119.4	-388.489	-35.1563
119.5	-387.268	-35.0952
119.6	-393.982	-35.0952
119.7	-398.56	-35.0952
119.8	-394.592	-35.0952
119.9	-396.118	-35.0952
120	-398.254	-35.1257
120.1	-401.306	-35.2173
120.2	-395.508	-40.1917
120.3	-400.085	-40.1917
120.4	-414.124	-40.1306
120.5	-419.922	-40.1001
120.6	-413.818	-40.1001
120.7	-413.208	-40.2527
120.8	-410.461	-40.2222
120.9	-401.917	-40.1001
121	-401.001	-40.1306
121.1	-397.339	-40.1917
121.2	-393.677	-40.1001
121.3	-389.709	-40.1306
121.4	-392.456	-40.1611
121.5	-395.508	-40.1001
121.6	-397.644	-40.1611
121.7	-401.611	-40.1917
121.8	-407.715	-40.1611
121.9	-401.001	-40.1917
122	-389.404	-40.2832
122.1	-384.827	-40.1917
122.2	-386.353	-40.1917
122.3	-382.385	-40.1001
122.4	-383.606	-40.1611
122.5	-377.808	-40.2527
122.6	-386.963	-40.1001
122.7	-384.827	-40.1917
122.8	-376.892	-40.2222
122.9	-382.08	-40.2527
123	-379.028	-40.2832
123.1	-378.418	-40.2222
123.2	-377.502	-40.1917
123.3	-376.282	-40.1306
123.4	-376.587	-40.1306
123.5	-382.69	-40.1001
123.6	-372.314	-40.1306
123.7	-368.042	-40.1611
123.8	-371.399	-40.1306
123.9	-369.263	-40.2222
124	-366.211	-40.2832
124.1	-367.432	-40.0696
124.2	-365.295	-40.1611
124.3	-368.958	-40.2832
124.4	-368.347	-40.2222
124.5	-370.789	-40.1001
124.6	-364.685	-40.1611
124.7	-363.464	-40.2527
124.8	-366.516	-40.1917
124.9	-371.704	-40.1001
125	-375.366	-40.2222
125.1	-372.62	-40.1917
125.2	-366.211	-40.1306
125.3	-366.211	-40.3137
125.4	-366.821	-40.1001
125.5	-361.023	-40.1001
125.6	-361.938	-40.2832
125.7	-365.906	-40.1917
125.8	-369.568	-40.1306
125.9	-359.497	-40.2222
126	-354.004	-40.2222
126.1	-362.854	-40.1001
126.2	-366.821	-40.2832
126.3	-357.971	-40.1001
126.4	-350.037	-40.1306
126.5	-352.783	-40.2527
126.6	-365.906	-40.1306
126.7	-374.756	-40.1306
126.8	-369.873	-40.2527
126.9	-362.854	-40.2527
127	-367.126	-40.1611
127.1	-370.483	-40.1001
127.2	-360.107	-40.1611
127.3	-358.582	-40.1306
127.4	-352.783	-40.2222
127.5	-354.614	-40.3137
127.6	-353.088	-40.1917
127.7	-352.173	-40.1306
127.8	-361.023	-40.1611
127.9	-372.62	-40.1001
128	-369.873	-40.1611
128.1	-353.088	-40.2527
128.2	-351.563	-40.2527
128.3	-360.413	-40.1306
128.4	-364.075	-40.1306
128.5	-360.107	-40.1611
128.6	-357.971	-40.1917
128.7	-361.938	-40.2527
128.8	-354.614	-40.2527
128.9	-346.069	-40.0696
129	-347.29	-40.1001
129.1	-357.971	-40.1306
129.2	-360.413	-40.1001
129.3	-360.718	-40.0696
129.4	-365.906	-40.1306
129.5	-361.938	-40.0696
129.6	-350.037	-40.0696
129.7	-356.445	-40.1611
129.8	-362.244	-40.1001
129.9	-361.633	-40.1306
130	-357.666	-40.1306
130.1	-347.9	-40.0696
130.2	-350.342	-45.0439
130.3	-354.614	-45.1355
130.4	-362.244	-45.105
130.5	-363.159	-45.2271
130.6	-368.958	-45.2576
130.7	-365.295	-45.1355
130.8	-357.971	-45.0745
130.9	-358.276	-45.166
131	-360.718	-45.166
131.1	-372.314	-45.2271
131.2	-382.08	-45.2576
131.3	-368.958	-45.1355
131.4	-358.582	-45.0439
131.5	-351.868	-45.1355
131.6	-350.342	-45.0745
131.7	-349.731	-45.2271
131.8	-355.835	-45.2576
131.9	-352.173	-45.1355
132	-350.037	-45.0745
132.1	-350.952	-45.1355
132.2	-354.309	-45.0745
132.3	-346.68	-45.166
132.4	-347.29	-45.2576
132.5	-353.088	-45.2271
132.6	-337.219	-45.2271
132.7	-320.435	-45.166
132.8	-323.792	-45.1355
132.9	-334.167	-45.0745
133	-335.083	-45.1355
133.1	-346.375	-45.1965
133.2	-357.361	-45.2271
133.3	-339.05	-45.105
133.4	-339.05	-45.0745
133.5	-350.647	-45.2271
133.6	-349.426	-45.1355
133.7	-344.849	-45.0439
133.8	-343.628	-45.105
133.9	-340.576	-45.2271
134	-340.881	-45.166
134.1	-339.966	-45.105
134.2	-335.999	-45.105
134.3	-338.745	-45.0745
134.4	-328.064	-45.105
134.5	-325.623	-45.0745
134.6	-326.233	-45.105
134.7	-325.623	-45.105
134.8	-329.59	-45.0439
134.9	-330.2	-45.0745
135	-333.862	-45.166
135.1	-335.999	-45.105
135.2	-337.524	-45.166
135.3	-332.642	-45.166
135.4	-335.388	-45.0745
135.5	-336.914	-45.105
135.6	-328.674	-45.0745
135.7	-329.285	-45.1355
135.8	-336.609	-45.2271
135.9	-341.187	-45.2576
136	-336.914	-45.1355
136.1	-325.928	-45.1355
136.2	-325.012	-45.105
136.3	-324.097	-45.0439
136.4	-327.454	-45.1355
136.5	-327.759	-45.0745
136.6	-331.116	-45.0745
136.7	-339.355	-45.166
136.8	-328.674	-45.1965
136.9	-326.538	-45.1965
137	-321.045	-45.166
137.1	-307.922	-45.0745
137.2	-307.312	-45.1355
137.3	-314.331	-45.0439
137.4	-315.552	-45.0439
137.5	-307.922	-45.105
137.6	-308.838	-45.0745
137.7	-325.012	-45.105
137.8	-327.148	-45.1355
137.9	-323.486	-45.1355
138	-321.045	-45.2271
138.1	-313.11	-45.1965
138.2	-314.331	-45.2271
138.3	-321.96	-45.2576
138.4	-328.369	-45.2271
138.5	-332.031	-45.2271
138.6	-323.792	-45.2881
138.7	-318.298	-45.1965
138.8	-314.026	-45.2271
138.9	-308.838	-45.1965
139	-312.805	-45.2271
139.1	-311.279	-45.3186
139.2	-299.988	-45.1965
139.3	-299.683	-45.1965
139.4	-306.091	-45.2271
139.5	-310.364	-45.1965
139.6	-319.824	-45.2576
139.7	-322.571	-45.1965
139.8	-328.979	-45.166
139.9	-326.233	-45.2271
140	-317.993	-45.1965
140.1	-313.721	-45.1965
140.2	-312.5	-50.2319
140.3	-318.298	-50.1404
140.4	-310.364	-50.1709
140.5	-303.04	-50.1404
140.6	-309.143	-50.1099
140.7	-308.228	-50.1099
140.8	-314.636	-50.1099
140.9	-325.623	-50.1099
141	-320.129	-50.1099
141.1	-312.805	-50.0793
141.2	-309.753	-50.1099
141.3	-310.059	-50.2014
141.4	-311.279	-50.2014
141.5	-307.922	-50.2625
141.6	-303.04	-50.2014
141.7	-311.584	-50.2319
141.8	-301.514	-50.2319
141.9	-302.124	-50.2014
142	-313.416	-50.2319
142.1	-308.228	-50.1709
142.2	-298.157	-50.1404
142.3	-290.833	-50.1709
142.4	-296.326	-50.1099
142.5	-296.936	-50.1404
142.6	-289.917	-50.1709
142.7	-286.865	-50.2014
142.8	-285.95	-50.2014
142.9	-292.969	-50.1099
143	-296.021	-50.0793
143.1	-287.476	-50.1709
143.2	-278.32	-50.1709
143.3	-274.353	-50.2319
143.4	-282.288	-50.2319
143.5	-298.767	-50.0793
143.6	-308.838	-50.0793
143.7	-300.598	-50.1099
143.8	-292.664	-50.1099
143.9	-296.021	-50.2014
144	-296.631	-50.1404
144.1	-292.664	-50.1404
144.2	-291.138	-50.2319
144.3	-289.612	-50.1709
144.4	-286.255	-50.1709
144.5	-278.931	-50.1099
144.6	-281.677	-50.0488
144.7	-290.833	-50.1404
144.8	-286.56	-50.1099
144.9	-285.95	-50.2014
145	-279.236	-50.0793
145.1	-270.996	-50.1099
145.2	-274.048	-50.2319
145.3	-280.151	-50.1099
145.4	-279.541	-50.1404
145.5	-275.269	-50.2625
145.6	-266.724	-50.1099
145.7	-271.301	-50.0793
145.8	-272.217	-50.2014
145.9	-265.503	-50.1099
146	-264.587	-50.1404
146.1	-273.132	-50.1709
146.2	-283.813	-50.1709
146.3	-287.476	-50.1404
146.4	-275.879	-50.1709
146.5	-268.555	-50.2625
146.6	-272.827	-50.1099
146.7	-271.301	-50.0793
146.8	-264.587	-50.1709
146.9	-267.334	-50.1709
147	-271.606	-50.2014
147.1	-270.081	-50.1099
147.2	-274.048	-50.0793
147.3	-271.301	-50.1404
147.4	-273.743	-50.0488
147.5	-285.95	-50.0793
147.6	-294.495	-50.1099
147.7	-288.086	-50.1099
147.8	-286.865	-50.2319
147.9	-279.541	-50.2319
148	-276.794	-50.2319
148.1	-273.132	-50.2319
148.2	-275.879	-50.2014
148.3	-270.386	-50.2319
148.4	-265.503	-50.1404
148.5	-269.775	-50.1709
148.6	-266.724	-50.1404
148.7	-249.329	-50.1099
148.8	-245.056	-50.1099
148.9	-259.399	-50.0488
149	-274.963	-50.0793
149.1	-275.879	-50.0793
149.2	-267.029	-50.0793
149.3	-266.418	-50.1404
149.4	-277.71	-50.1404
149.5	-282.288	-50.2625
149.6	-277.405	-50.2319
149.7	-270.996	-50.1709
149.8	-270.996	-50.1709
149.9	-267.029	-50.0793
150	-263.672	-50.1099
150.1	-267.334	-55.0537
150.2	-270.691	-55.0842
150.3	-273.438	-55.1147
150.4	-275.879	-55.0842
150.5	-267.944	-55.1147
150.6	-259.705	-55.0842
150.7	-258.179	-55.0842
150.8	-258.179	-55.1147
150.9	-253.601	-55.0842
151	-258.789	-55.1147
151.1	-265.808	-55.0232
151.2	-256.653	-55.0842
151.3	-260.925	-55.1758
151.4	-266.724	-55.1147
151.5	-260.01	-55.1758
151.6	-260.315	-55.0842
151.7	-259.094	-55.1453
151.8	-252.686	-55.1453
151.9	-245.056	-55.1453
152	-241.394	-55.1758
152.1	-245.361	-55.1147
152.2	-240.784	-55.1453
152.3	-244.141	-55.0842
152.4	-240.173	-55.1147
152.5	-231.018	-55.1147
152.6	-236.816	-55.1758
152.7	-238.647	-55.2368
152.8	-241.089	-55.1758
152.9	-242.004	-55.2063
153	-238.953	-55.1453
153.1	-233.765	-55.1453
153.2	-228.577	-55.1453
153.3	-229.797	-55.1147
153.4	-229.492	-55.1147
153.5	-237.732	-55.0537
153.6	-239.868	-55.0842
153.7	-226.746	-55.1453
153.8	-223.694	-55.0537
153.9	-233.459	-55.1453
154	-235.291	-55.1758
154.1	-226.746	-55.1758
154.2	-220.947	-55.2368
154.3	-221.252	-55.1758
154.4	-217.285	-55.2368
154.5	-220.642	-55.1758
154.6	-224.609	-55.2368
154.7	-215.759	-55.2063
154.8	-224.915	-55.2063
154.9	-221.252	-55.2673
155	-205.994	-55.1758
155.1	-208.13	-55.1453
155.2	-218.506	-55.1758
155.3	-223.694	-55.0842
155.4	-229.492	-55.1147
155.5	-224.304	-55.0537
155.6	-219.116	-55.1453
155.7	-216.064	-55.2063
155.8	-208.435	-55.1453
155.9	-205.383	-55.2673
156	-214.233	-55.2063
156.1	-223.999	-55.2063
156.2	-212.097	-55.2063
156.3	-208.435	-55.2063
156.4	-216.675	-55.2368
156.5	-218.506	-55.0842
156.6	-218.201	-55.1147
156.7	-218.201	-55.0537
156.8	-221.252	-55.0842
156.9	-218.506	-55.0842
157	-215.454	-55.1147
157.1	-215.149	-55.1453
157.2	-220.032	-55.0842
157.3	-219.727	-55.0842
157.4	-207.52	-55.0232
157.5	-209.351	-55.1147
157.6	-211.487	-55.2673
157.7	-213.013	-55.2368
157.8	-210.876	-55.2368
157.9	-211.182	-55.1453
158	-210.876	-55.1147
158.1	-210.571	-55.1147
158.2	-209.961	-55.2063
158.3	-207.825	-55.2673
158.4	-203.552	-55.1758
158.5	-195.007	-55.1147
158.6	-202.026	-55.0842
158.7	-207.214	-55.1147
158.8	-205.688	-55.0842
158.9	-205.688	-55.1147
159	-205.078	-55.1147
159.1	-212.097	-55.0537
159.2	-219.727	-55.0842
159.3	-213.623	-55.1147
159.4	-202.026	-55.1147
159.5	-199.585	-55.1147
159.6	-203.552	-55.0842
159.7	-201.111	-55.0842
159.8	-204.163	-55.1147
159.9	-205.383	-55.1453
160	-203.247	-55.2673
160.1	-206.604	-60.0586
160.2	-198.975	-60.0891
160.3	-209.045	-60.1807
160.4	-211.182	-60.2417
160.5	-195.007	-60.0891
160.6	-191.345	-60.2417
160.7	-202.332	-60.1196
160.8	-204.468	-60.0891
160.9	-197.754	-60.1807
161	-197.144	-60.2417
161.1	-200.195	-60.0891
161.2	-193.481	-60.1196
161.3	-182.495	-60.2112
161.4	-184.326	-60.1196
161.5	-196.533	-60.0891
161.6	-195.313	-60.1196
161.7	-182.495	-60.2112
161.8	-177.307	-60.1807
161.9	-177.612	-60.1807
162	-183.105	-60.0891
162.1	-184.937	-60.0586
162.2	-178.833	-60.0891
162.3	-175.171	-60.0586
162.4	-186.157	-60.1501
162.5	-186.157	-60.2112
162.6	-172.119	-60.2112
162.7	-169.983	-60.2112
162.8	-177.002	-60.2112
162.9	-175.781	-60.2112
163	-167.542	-60.1196
163.1	-163.574	-60.0281
163.2	-164.795	-60.1196
163.3	-168.762	-60.0891
163.4	-169.373	-60.1501
163.5	-166.931	-60.2112
163.6	-168.152	-60.1501
163.7	-172.119	-60.1501
163.8	-170.898	-60.0586
163.9	-167.542	-60.1196
164	-166.321	-60.2112
164.1	-170.593	-60.1807
164.2	-169.373	-60.2112
164.3	-163.269	-60.1196
164.4	-155.029	-60.0891
164.5	-158.386	-60.0891
164.6	-155.029	-60.0891
164.7	-149.841	-60.1501
164.8	-155.029	-60.1196
164.9	-165.1	-60.2722
165	-159.302	-60.1501
165.1	-149.231	-60.1807
165.2	-158.081	-60.1501
165.3	-162.659	-60.0891
165.4	-158.386	-60.0891
165.5	-158.997	-60.0586
165.6	-155.64	-60.0891
165.7	-147.4	-60.1807
165.8	-149.841	-60.1196
165.9	-158.081	-60.1196
166	-159.302	-60.1196
166.1	-151.978	-60.0891
166.2	-154.724	-60.1501
166.3	-158.997	-60.1196
166.4	-157.166	-60.1501
166.5	-155.945	-60.1196
166.6	-153.198	-60.1196
166.7	-148.315	-60.0891
166.8	-144.043	-60.1196
166.9	-139.16	-60.1501
167	-133.057	-60.0891
167.1	-136.108	-60.2112
167.2	-140.076	-60.1807
167.3	-146.179	-60.2112
167.4	-141.907	-60.2112
167.5	-137.634	-60.1807
167.6	-141.296	-60.1501
167.7	-147.095	-60.1196
167.8	-143.127	-60.0586
167.9	-133.362	-60.1196
168	-127.258	-60.0586
168.1	-135.193	-60.1196
168.2	-139.465	-60.0586
168.3	-146.484	-60.1501
168.4	-142.517	-60.2417
168.5	-140.991	-60.2112
168.6	-142.212	-60.1807
168.7	-138.55	-60.0891
168.8	-136.414	-60.1196
168.9	-138.855	-60.1501
169	-140.686	-60.2417
169.1	-141.602	-60.1501
169.2	-138.855	-60.1196
169.3	-131.836	-60.1807
169.4	-131.531	-60.2112
169.5	-137.024	-60.1807
169.6	-135.498	-60.1196
169.7	-130.92	-60.0586
169.8	-129.089	-60.1501
169.9	-136.719	-60.1501
170	-133.667	-60.1501
170.1	-129.7	-65.0635
170.2	-133.667	-65.0024
170.3	-135.193	-65.094
170.4	-136.108	-65.0024
170.5	-136.414	-65.0635
170.6	-133.362	-65.0024
170.7	-133.667	-65.0635
170.8	-124.817	-65.094
170.9	-122.986	-65.0635
171	-126.953	-65.155
171.1	-123.901	-65.1245
171.2	-117.188	-65.2161
171.3	-115.662	-65.155
171.4	-118.103	-65.2771
171.5	-115.051	-65.155
171.6	-109.558	-65.2466
171.7	-114.136	-65.155
171.8	-122.681	-65.2161
171.9	-115.662	-65.1855
172	-113.22	-65.1855
172.1	-114.441	-65.1855
172.2	-103.455	-65.1245
172.3	-99.4873	-65.033
172.4	-101.013	-65.0024
172.5	-101.929	-65.033
172.6	-101.624	-65.0635
172.7	-100.708	-65.094
172.8	-101.013	-65.033
172.9	-104.065	-65.1245
173	-103.76	-65.0635
173.1	-95.2148	-65.1245
173.2	-92.1631	-65.094
173.3	-94.6045	-65.2161
173.4	-91.5527	-65.1855
173.5	-88.501	-65.033
173.6	-91.2476	-65.0635
173.7	-91.5527	-65.1855
173.8	-95.2148	-65.2161
173.9	-93.9941	-65.0635
174	-86.3647	-65.094
174.1	-83.6182	-65.155
174.2	-82.3975	-65.1855
174.3	-86.3647	-65.033
174.4	-88.501	-65.0635
174.5	-85.7544	-65.0635
174.6	-84.2285	-65.1245
174.7	-84.8389	-65.155
174.8	-83.9233	-65.1855
174.9	-84.5337	-65.1245
175	-88.501	-65.033
175.1	-88.8062	-65.094
175.2	-84.8389	-65.0635
175.3	-88.8062	-65.2161
175.4	-86.3647	-65.1245
175.5	-79.6509	-65.0635
175.6	-89.1113	-65.033
175.7	-93.689	-65.094
175.8	-84.2285	-65.2466
175.9	-80.2612	-65.033
176	-84.2285	-65.094
176.1	-88.1958	-65.0635
176.2	-84.2285	-65.1245
176.3	-75.3784	-65.0024
176.4	-73.2422	-65.094
176.5	-75.3784	-65.155
176.6	-74.7681	-65.155
176.7	-74.4629	-65.2161
176.8	-79.3457	-65.1855
176.9	-79.9561	-65.1245
177	-79.3457	-65.1245
177.1	-81.1768	-65.1855
177.2	-80.5664	-65.155
177.3	-75.9888	-65.155
177.4	-74.4629	-65.155
177.5	-76.5991	-65.1245
177.6	-81.4819	-65.1245
177.7	-88.1958	-65.0024
177.8	-85.144	-65.094
177.9	-78.7354	-65.033
178	-77.5146	-65.0635
178.1	-77.8198	-65.033
178.2	-73.5474	-65.0635
178.3	-68.6646	-65.1245
178.4	-72.6318	-65.155
178.5	-78.7354	-65.2466
178.6	-76.9043	-65.1855
178.7	-78.125	-65.155
178.8	-73.8525	-65.1245
178.9	-73.2422	-65.0635
179	-72.937	-65.094
179.1	-68.3594	-65.033
179.2	-63.4766	-65.094
179.3	-63.7817	-65.033
179.4	-66.2231	-65.033
179.5	-68.6646	-65.094
179.6	-71.4111	-65.1855
179.7	-72.6318	-65.2466
179.8	-72.3267	-65.1855
179.9	-67.749	-65.2161
180	-65.3076	-65.155
180.1	-67.4438	-70.0989
180.2	-72.6318	-70.0989
180.3	-77.8198	-70.1294
180.4	-74.4629	-70.2209
180.5	-73.2422	-70.0989
180.6	-70.8008	-70.1599
180.7	-66.8335	-70.1294
180.8	-70.4956	-70.1294
180.9	-68.6646	-70.0989
181	-68.3594	-70.0378
181.1	-71.106	-70.0989
181.2	-61.9507	-70.0989
181.3	-56.4575	-70.1599
181.4	-56.7627	-70.1904
181.5	-64.6973	-70.1904
181.6	-65.6128	-70.2209
181.7	-62.561	-70.1904
181.8	-64.3921	-70.1904
181.9	-67.749	-70.0989
182	-66.2231	-70.0989
182.1	-62.2559	-70.1294
182.2	-62.561	-70.0378
182.3	-62.2559	-70.0989
182.4	-60.4248	-70.1599
182.5	-64.3921	-70.1904
182.6	-59.2041	-70.1904
182.7	-46.6919	-70.0989
182.8	-50.6592	-70.0684
182.9	-58.5938	-70.0378
183	-58.2886	-70.1599
183.1	-55.8472	-70.1904
183.2	-59.5093	-70.1294
183.3	-60.4248	-70.1294
183.4	-57.0679	-70.0378
183.5	-54.9316	-70.0378
183.6	-50.9644	-70.0684
183.7	-54.9316	-70.0684
183.8	-56.1523	-70.1294
183.9	-50.0488	-70.0684
184	-47.3022	-70.0989
184.1	-51.2695	-70.0989
184.2	-52.7954	-70.0684
184.3	-51.8799	-70.1294
184.4	-47.3022	-70.0684
184.5	-46.3867	-70.1294
184.6	-49.1333	-70.1904
184.7	-47.6074	-70.1904
184.8	-45.166	-70.2209
184.9	-50.0488	-70.1904
185	-55.542	-70.1904
185.1	-59.2041	-70.1904
185.2	-57.6782	-70.1904
185.3	-50.0488	-70.1904
185.4	-46.9971	-70.0378
185.5	-50.354	-70.0989
185.6	-47.3022	-70.0378
185.7	-46.0815	-70.0684
185.8	-46.9971	-70.1294
185.9	-45.7764	-70.0378
186	-46.0815	-70.1294
186.1	-50.354	-70.0684
186.2	-53.1006	-70.0684
186.3	-48.2178	-70.0989
186.4	-50.354	-70.0378
186.5	-50.9644	-70.0684
186.6	-46.0815	-70.0684
186.7	-44.5557	-70.0378
186.8	-44.5557	-70.1599
186.9	-48.5229	-70.0989
187	-47.9126	-70.1294
187.1	-53.1006	-70.0684
187.2	-54.0161	-70.0378
187.3	-51.2695	-70.0989
187.4	-47.6074	-70.0684
187.5	-42.7246	-70.0684
187.6	-42.7246	-70.0684
187.7	-50.354	-70.0684
187.8	-48.2178	-70.0989
187.9	-41.5039	-70.0989
188	-44.5557	-70.1904
188.1	-49.1333	-70.1904
188.2	-45.7764	-70.2209
188.3	-43.6401	-70.2515
188.4	-38.147	-70.1904
188.5	-34.79	-70.2209
188.6	-41.5039	-70.1904
188.7	-41.5039	-70.0989
188.8	-38.4521	-70.0989
188.9	-39.0625	-70.0684
189	-35.7056	-70.0989
189.1	-35.4004	-70.0684
189.2	-34.1797	-70.0684
189.3	-33.2642	-70.0378
189.4	-37.2314	-70.0684
189.5	-36.3159	-70.0989
189.6	-33.2642	-70.0989
189.7	-36.0107	-70.1294
189.8	-38.147	-70.0684
189.9	-37.2314	-70.0378
190	-39.3677	-75.0427
190.1	-46.9971	-75.0122
190.2	-45.4712	-75.1038
190.3	-40.8936	-75.0122
190.4	-44.8608	-75.0122
190.5	-49.1333	-75.0427
190.6	-50.354	-75.0122
190.7	-51.5747	-75.0732
190.8	-53.1006	-75.0427
190.9	-52.7954	-75.1343
191	-51.5747	-75.2258
191.1	-51.2695	-75.0122
191.2	-46.6919	-75.0732
191.3	-41.1987	-75.1648
191.4	-39.6729	-75.1038
191.5	-42.7246	-75.0122
191.6	-36.3159	-75.0427
191.7	-32.3486	-75.1953
191.8	-32.6538	-75.0122
191.9	-31.4331	-75.0427
192	-30.5176	-75.0732
192.1	-30.5176	-75.1343
192.2	-31.7383	-75.1953
192.3	-32.0435	-75.1343
192.4	-31.1279	-75.1648
192.5	-29.6021	-75.2258
192.6	-28.3813	-75.1038
192.7	-31.1279	-75.0732
192.8	-36.3159	-74.9817
192.9	-39.0625	-75.1038
193	-37.5366	-75.1038
193.1	-33.5693	-75.1038
193.2	-32.959	-75.1038
193.3	-34.79	-75.1038
193.4	-42.4194	-75.0732
193.5	-49.7437	-75.0732
193.6	-45.4712	-75.0427
193.7	-43.9453	-75.1038
193.8	-45.7764	-75.0122
193.9	-38.4521	-75.0122
194	-33.8745	-75.0732
194.1	-36.9263	-75.1038
194.2	-32.959	-75.1343
194.3	-29.9072	-75.0122
194.4	-31.4331	-75.0732
194.5	-39.0625	-75.0122
194.6	-38.4521	-75.0122
194.7	-29.9072	-75.0732
194.8	-28.3813	-75.1038
194.9	-31.4331	-75.1953
195	-40.5884	-75.1343
195.1	-42.4194	-75.0732
195.2	-40.5884	-75.0427
195.3	-37.2314	-75.0427
195.4	-35.7056	-75.1038
195.5	-36.9263	-75.1038
195.6	-33.8745	-75.1343
195.7	-31.4331	-75.1648
195.8	-26.8555	-75.1343
195.9	-23.1934	-75.1343
196	-26.5503	-75.1343
196.1	-29.9072	-75.1038
196.2	-30.2124	-75.0732
196.3	-30.5176	-75.0732
196.4	-34.1797	-75.0427
196.5	-37.5366	-75.0427
196.6	-34.79	-75.0732
196.7	-30.8228	-75.0122
196.8	-29.2969	-75.1038
196.9	-30.8228	-75.1343
197	-31.1279	-75.1648
197.1	-30.8228	-75.1648
197.2	-33.8745	-75.0122
197.3	-36.6211	-75.1343
197.4	-37.8418	-75.1038
197.5	-40.2832	-75.1343
197.6	-38.147	-75.0732
197.7	-35.4004	-75.0732
197.8	-38.7573	-75.0732
197.9	-36.6211	-75.0427
198	-28.9917	-75.1038
198.1	-29.9072	-75.1648
198.2	-32.3486	-75.1343
198.3	-31.1279	-75.1343
198.4	-31.7383	-75.0732
198.5	-30.8228	-75.0427
198.6	-33.5693	-75.0427
198.7	-37.5366	-75.0732
198.8	-37.2314	-75.1648
198.9	-35.0952	-75.0732
199	-39.3677	-75.0732
199.1	-40.2832	-75.0732
199.2	-34.1797	-75.1953
199.3	-34.79	-75.0732
199.4	-35.0952	-75.0122
199.5	-30.2124	-74.9817
199.6	-29.6021	-75.0427
199.7	-34.1797	-75.1038
199.8	-40.8936	-75.1343
199.9	-41.8091	-75.1953
200	-34.1797	-75.0732
200.1	-30.5176	-80.0781
200.2	-30.8228	-80.0476
200.3	-34.4849	-80.0476
200.4	-40.5884	-80.2307
200.5	-43.0298	-80.0476
200.6	-37.5366	-80.0476
200.7	-35.4004	-80.1086
200.8	-38.7573	-80.2002
200.9	-39.978	-80.0781
201	-40.2832	-79.9866
201.1	-34.4849	-80.1086
201.2	-28.9917	-80.1086
201.3	-36.3159	-80.0781
201.4	-34.79	-80.1392
201.5	-28.6865	-80.0781
201.6	-30.5176	-80.0781
201.7	-35.4004	-80.0781
201.8	-34.1797	-80.0476
201.9	-30.8228	-80.1697
202	-32.959	-80.1392
202.1	-36.9263	-79.9866
202.2	-31.7383	-80.2002
202.3	-28.6865	-80.0476
202.4	-31.4331	-80.0171
202.5	-34.4849	-80.2002
202.6	-36.3159	-80.1086
202.7	-39.0625	-80.0476
202.8	-36.3159	-80.1086
202.9	-33.2642	-80.1086
203	-37.5366	-80.0171
203.1	-38.4521	-80.0781
203.2	-35.7056	-80.1697
203.3	-37.2314	-80.0476
203.4	-36.0107	-80.0171
203.5	-29.9072	-80.1086
203.6	-32.959	-80.2307
203.7	-39.0625	-80.1086
203.8	-39.0625	-80.0476
203.9	-35.4004	-80.0171
204	-33.8745	-79.9866
204.1	-39.978	-80.0476
204.2	-40.5884	-80.0476
204.3	-40.5884	-80.0781
204.4	-41.5039	-79.9866
204.5	-41.8091	-80.0476
204.6	-42.7246	-80.0171
204.7	-38.147	-80.0476
204.8	-32.3486	-80.0781
204.9	-33.2642	-80.0476
205	-37.5366	-80.1086
205.1	-34.1797	-80.0781
205.2	-28.6865	-80.0781
205.3	-32.6538	-80.0476
205.4	-41.5039	-80.0171
205.5	-36.6211	-80.0476
205.6	-30.8228	-80.0476
205.7	-32.959	-80.0476
205.8	-32.3486	-80.0171
205.9	-33.2642	-80.0476
206	-39.978	-80.0476
206.1	-39.0625	-80.0171
206.2	-34.4849	-80.0476
206.3	-35.7056	-80.0476
206.4	-34.1797	-80.2002
206.5	-35.0952	-80.1697
206.6	-39.0625	-80.1697
206.7	-36.6211	-80.0171
206.8	-32.3486	-80.0171
206.9	-29.6021	-80.0476
207	-29.9072	-80.0476
207.1	-28.0762	-80.1697
207.2	-25.3296	-80.1086
207.3	-29.9072	-80.0476
207.4	-35.4004	-80.0476
207.5	-35.7056	-80.1392
207.6	-36.6211	-80.1697
207.7	-36.6211	-80.0171
207.8	-37.5366	-80.1697
207.9	-35.4004	-80.0781
208	-33.8745	-80.0781
208.1	-36.3159	-80.1392
208.2	-37.2314	-80.1086
208.3	-32.6538	-80.0781
208.4	-31.1279	-80.0171
208.5	-35.4004	-80.1697
208.6	-35.4004	-80.0171
208.7	-32.3486	-80.1392
208.8	-30.8228	-80.1697
208.9	-30.8228	-80.0781
209	-32.959	-80.1392
209.1	-31.1279	-80.0781
209.2	-32.0435	-80.0476
209.3	-33.2642	-80.1697
209.4	-34.4849	-80.0476
209.5	-34.1797	-80.1392
209.6	-33.8745	-80.0476
209.7	-35.0952	-80.1697
