ATF	1.0
7	3     
"AcquisitionMode=Gap Free"
"Comment="
"YTop=10000,1000"
"YBottom=-10000,-1000"
"SweepStartTimesMS=0.000"
"SignalsExported=Im_Scaled,10_mv"
"Signals="	"Im_Scaled"	"10_mv"
"Time (s)"	"Trace #1 (pA)"	"Trace #1 (mV)"
0	1260.38	19.7449
0.1	1269.23	19.7449
0.2	1275.33	19.7754
0.3	1268.62	19.5923
0.4	1256.41	19.7754
0.5	1255.8	19.6533
0.6	1259.46	19.7449
0.7	1253.97	19.6228
0.8	1244.81	19.8059
0.9	1235.96	19.6533
1	1235.05	19.8059
1.1	1239.01	19.6533
1.2	1248.47	19.8059
1.3	1260.38	19.6533
1.4	1261.6	19.7449
1.5	1257.02	19.6838
1.6	1252.14	19.7144
1.7	1252.44	19.6838
1.8	1242.07	19.8364
1.9	1234.44	19.6228
2	1235.96	19.8364
2.1	1239.32	19.7144
2.2	1246.03	19.7754
2.3	1255.19	19.6533
2.4	1264.04	19.7754
2.5	1266.78	19.6228
2.6	1259.77	19.7449
2.7	1258.24	19.7144
2.8	1256.71	19.6838
2.9	1247.86	19.7754
3	1250.92	19.6228
3.1	1267.09	19.8364
3.2	1275.94	19.6838
3.3	1271.36	19.7754
3.4	1262.21	19.7144
3.5	1257.02	19.6533
3.6	1258.85	19.7144
3.7	1256.71	19.5923
3.8	1262.21	19.7449
3.9	1274.11	19.6533
4	1266.48	19.7449
4.1	1254.58	19.8059
4.2	1252.44	19.7754
4.3	1249.69	19.6533
4.4	1254.58	19.6533
4.5	1260.07	19.7754
4.6	1257.02	19.7449
4.7	1258.85	19.6533
4.8	1259.16	19.6533
4.9	1256.41	19.7754
5	1261.6	19.7449
5.1	1266.78	19.6533
5.2	1267.7	19.7449
5.3	1261.29	19.8059
5.4	1253.36	19.7754
5.5	1263.43	19.6838
5.6	1277.16	19.7449
5.7	1273.8	19.6228
5.8	1272.89	19.6228
5.9	1268.92	19.7754
6	1256.1	19.7449
6.1	1259.16	19.6533
6.2	1251.22	19.8059
6.3	1239.01	19.7144
6.4	1257.63	19.6533
6.5	1264.34	19.7754
6.6	1254.88	19.7449
6.7	1253.97	19.7449
6.8	1255.49	19.5923
6.9	1257.32	19.7144
7	1254.88	19.7754
7.1	1254.88	19.7144
7.2	1250.92	19.7144
7.3	1250	19.7754
7.4	1253.36	19.8059
7.5	1256.1	19.7449
7.6	1250.92	19.6228
7.7	1247.25	19.7144
7.8	1236.27	19.6838
7.9	1238.1	19.6533
8	1253.97	19.7754
8.1	1260.07	19.7449
8.2	1260.99	19.8059
8.3	1264.65	19.6838
8.4	1263.12	19.7449
8.5	1258.85	19.7754
8.6	1254.27	19.7449
8.7	1241.15	19.6228
8.8	1241.46	19.6533
8.9	1250	19.7754
9	1242.37	19.6838
9.1	1242.37	19.8059
9.2	1246.95	19.6838
9.3	1249.08	19.7144
9.4	1251.53	19.7449
9.5	1247.86	19.7449
9.6	1252.44	19.7449
9.7	1253.66	19.6228
9.8	1254.88	19.7449
9.9	1253.66	19.6533
10	1251.83	19.7144
10.1	1246.03	14.7705
10.2	1242.07	14.679
10.3	1135.56	14.7705
10.4	958.557	14.7095
10.5	917.969	14.801
10.6	933.838	14.679
10.7	933.228	14.7705
10.8	931.091	14.6179
10.9	936.89	14.74
11	934.448	14.679
11.1	931.396	14.679
11.2	938.721	14.7705
11.3	937.5	14.679
11.4	934.448	14.801
11.5	935.364	14.7095
11.6	931.091	14.6179
11.7	928.955	14.7705
11.8	926.819	14.7095
11.9	926.819	14.6179
12	927.734	14.74
12.1	923.767	14.7705
12.2	930.786	14.7705
12.3	935.974	14.7095
12.4	939.026	14.7095
12.5	937.5	14.7705
12.6	931.702	14.679
12.7	928.345	14.7705
12.8	931.702	14.6484
12.9	930.786	14.7095
13	927.429	14.6484
13.1	931.702	14.7705
13.2	938.416	14.6484
13.3	939.636	14.801
13.4	934.753	14.74
13.5	932.922	14.7705
13.6	934.448	14.7705
13.7	937.805	14.6484
13.8	934.448	14.801
13.9	930.481	14.679
14	925.903	14.6179
14.1	917.053	14.7095
14.2	917.053	14.6179
14.3	923.767	14.7705
14.4	935.974	14.6484
14.5	939.331	14.74
14.6	935.364	14.7705
14.7	933.228	14.679
14.8	929.26	14.7705
14.9	932.617	14.679
15	933.838	14.7705
15.1	931.396	14.6484
15.2	939.026	14.6484
15.3	944.214	14.74
15.4	941.772	14.6179
15.5	936.89	14.7095
15.6	943.604	14.7705
15.7	945.74	14.6484
15.8	942.383	14.7095
15.9	940.247	14.801
16	940.247	14.679
16.1	933.533	14.7095
16.2	936.584	14.801
16.3	940.552	14.74
16.4	935.974	14.6179
16.5	935.059	14.7095
16.6	937.805	14.7095
16.7	937.195	14.6484
16.8	924.072	14.801
16.9	921.936	14.7705
17	927.429	14.6484
17.1	944.214	14.7705
17.2	951.538	14.801
17.3	942.688	14.6484
17.4	938.11	14.74
17.5	944.214	14.74
17.6	943.298	14.6484
17.7	931.091	14.5874
17.8	930.176	14.7095
17.9	938.721	14.7705
18	935.059	14.7095
18.1	939.941	14.6179
18.2	942.993	14.7095
18.3	942.383	14.801
18.4	944.824	14.74
18.5	942.688	14.6484
18.6	934.143	14.74
18.7	930.176	14.74
18.8	924.988	14.6484
18.9	922.852	14.679
19	926.514	14.7705
19.1	932.617	14.74
19.2	936.89	14.6484
19.3	935.364	14.74
19.4	924.072	14.8315
19.5	914.001	14.7705
19.6	914.612	14.6484
19.7	925.903	14.7705
19.8	934.143	14.74
19.9	933.228	14.679
20	932.312	14.7705
20.1	935.364	14.7705
20.2	938.721	14.74
20.3	940.857	9.67407
20.4	909.119	9.61304
20.5	751.953	9.67407
20.6	633.545	9.73511
20.7	624.084	9.70459
20.8	621.033	9.61304
20.9	615.845	9.70459
21	616.455	9.79614
21.1	612.183	9.79614
21.2	618.286	9.67407
21.3	624.695	9.73511
21.4	626.221	9.79614
21.5	625.305	9.64355
21.6	622.253	9.79614
21.7	625.61	9.70459
21.8	625.61	9.76563
21.9	625.305	9.70459
22	629.578	9.73511
22.1	636.292	9.73511
22.2	631.714	9.67407
22.3	623.169	9.76563
22.4	625.305	9.58252
22.5	628.052	9.76563
22.6	626.221	9.70459
22.7	622.559	9.61304
22.8	620.728	9.79614
22.9	624.695	9.70459
23	620.728	9.67407
23.1	618.896	9.82666
23.2	622.864	9.73511
23.3	621.338	9.70459
23.4	621.643	9.79614
23.5	621.643	9.73511
23.6	625.61	9.64355
23.7	630.493	9.70459
23.8	627.747	9.76563
23.9	625.916	9.73511
24	627.136	9.58252
24.1	625.916	9.70459
24.2	625.61	9.73511
24.3	628.052	9.70459
24.4	627.136	9.61304
24.5	627.441	9.79614
24.6	627.441	9.67407
24.7	621.948	9.76563
24.8	619.812	9.76563
24.9	620.422	9.64355
25	620.117	9.79614
25.1	620.117	9.64355
25.2	620.422	9.76563
25.3	618.286	9.67407
25.4	616.15	9.76563
25.5	618.896	9.64355
25.6	619.812	9.73511
25.7	627.136	9.61304
25.8	635.986	9.76563
25.9	625.305	9.64355
26	617.371	9.76563
26.1	615.54	9.67407
26.2	612.183	9.79614
26.3	617.676	9.73511
26.4	623.169	9.76563
26.5	628.357	9.79614
26.6	624.695	9.67407
26.7	621.948	9.79614
26.8	624.084	9.67407
26.9	624.084	9.79614
27	620.117	9.73511
27.1	620.728	9.70459
27.2	625.916	9.82666
27.3	628.662	9.61304
27.4	623.169	9.76563
27.5	628.052	9.64355
27.6	632.935	9.73511
27.7	626.221	9.67407
27.8	629.272	9.73511
27.9	636.597	9.73511
28	629.578	9.70459
28.1	628.357	9.79614
28.2	626.221	9.64355
28.3	623.779	9.79614
28.4	628.967	9.64355
28.5	632.019	9.76563
28.6	628.052	9.76563
28.7	623.779	9.70459
28.8	622.559	9.76563
28.9	626.221	9.67407
29	627.136	9.76563
29.1	627.136	9.73511
29.2	623.169	9.70459
29.3	625.61	9.61304
29.4	628.967	9.73511
29.5	628.052	9.73511
29.6	627.441	9.67407
29.7	627.136	9.73511
29.8	626.221	9.67407
29.9	632.324	9.76563
30	635.986	9.76563
30.1	636.597	9.64355
30.2	635.376	4.85229
30.3	598.45	4.69971
30.4	444.946	4.82178
30.5	346.069	4.76074
30.6	338.135	4.76074
30.7	334.778	4.76074
30.8	330.505	4.69971
30.9	329.59	4.79126
31	328.674	4.63867
31.1	327.148	4.82178
31.2	329.895	4.66919
31.3	333.557	4.82178
31.4	334.473	4.63867
31.5	335.693	4.79126
31.6	337.219	4.69971
31.7	339.355	4.76074
31.8	339.355	4.76074
31.9	334.778	4.69971
32	332.031	4.85229
32.1	331.421	4.69971
32.2	334.473	4.79126
32.3	335.999	4.79126
32.4	335.083	4.66919
32.5	334.167	4.85229
32.6	335.693	4.69971
32.7	332.947	4.79126
32.8	333.252	4.76074
32.9	336.609	4.66919
33	334.778	4.82178
33.1	335.999	4.76074
33.2	337.219	4.63867
33.3	334.167	4.76074
33.4	334.473	4.76074
33.5	333.862	4.66919
33.6	334.167	4.82178
33.7	334.167	4.82178
33.8	334.167	4.63867
33.9	334.167	4.82178
34	332.336	4.82178
34.1	330.811	4.69971
34.2	330.2	4.76074
34.3	329.895	4.82178
34.4	331.421	4.76074
34.5	332.642	4.69971
34.6	332.642	4.76074
34.7	331.421	4.76074
34.8	333.557	4.63867
34.9	333.557	4.69971
35	331.116	4.76074
35.1	334.473	4.79126
35.2	334.778	4.69971
35.3	330.811	4.66919
35.4	332.031	4.82178
35.5	332.947	4.82178
35.6	331.421	4.69971
35.7	331.421	4.76074
35.8	328.064	4.79126
35.9	325.317	4.76074
36	325.623	4.66919
36.1	327.759	4.82178
36.2	330.2	4.66919
36.3	331.421	4.66919
36.4	331.116	4.79126
36.5	333.252	4.73022
36.6	332.336	4.63867
36.7	332.642	4.79126
36.8	335.083	4.76074
36.9	330.505	4.69971
37	327.759	4.73022
37.1	329.285	4.85229
37.2	332.031	4.79126
37.3	332.031	4.73022
37.4	330.811	4.73022
37.5	330.811	4.82178
37.6	337.524	4.69971
37.7	337.524	4.79126
37.8	335.083	4.82178
37.9	335.083	4.66919
38	333.557	4.76074
38.1	326.233	4.76074
38.2	328.369	4.63867
38.3	331.116	4.79126
38.4	331.726	4.76074
38.5	333.252	4.66919
38.6	332.336	4.82178
38.7	335.388	4.76074
38.8	339.966	4.85229
38.9	339.355	4.69971
39	333.862	4.85229
39.1	330.811	4.69971
39.2	332.031	4.82178
39.3	333.252	4.66919
39.4	329.285	4.85229
39.5	324.707	4.73022
39.6	324.097	4.82178
39.7	325.317	4.73022
39.8	325.623	4.73022
39.9	324.707	4.73022
40	325.623	4.63867
40.1	325.317	-0.305176
40.2	324.707	-0.213623
40.3	256.958	-0.335693
40.4	113.831	-0.183105
40.5	63.1714	-0.274658
40.6	65.6128	-0.213623
40.7	65.0024	-0.213623
40.8	65.0024	-0.213623
40.9	64.0869	-0.244141
41	64.3921	-0.183105
41.1	65.3076	-0.366211
41.2	65.3076	-0.213623
41.3	65.6128	-0.335693
41.4	64.6973	-0.183105
41.5	64.6973	-0.366211
41.6	64.6973	-0.244141
41.7	64.3921	-0.274658
41.8	64.3921	-0.213623
41.9	64.3921	-0.183105
42	65.0024	-0.335693
42.1	64.6973	-0.152588
42.2	64.0869	-0.213623
42.3	65.0024	-0.305176
42.4	65.3076	-0.183105
42.5	64.6973	-0.213623
42.6	64.3921	-0.244141
42.7	64.3921	-0.274658
42.8	64.6973	-0.366211
42.9	64.3921	-0.274658
43	64.3921	-0.244141
43.1	64.6973	-0.335693
43.2	64.6973	-0.213623
43.3	64.6973	-0.152588
43.4	65.0024	-0.305176
43.5	65.0024	-0.152588
43.6	65.3076	-0.213623
43.7	65.6128	-0.274658
43.8	63.7817	-0.183105
43.9	64.0869	-0.335693
44	65.3076	-0.305176
44.1	64.6973	-0.244141
44.2	63.7817	-0.244141
44.3	63.7817	-0.244141
44.4	64.0869	-0.274658
44.5	63.4766	-0.244141
44.6	63.1714	-0.274658
44.7	63.7817	-0.335693
44.8	64.0869	-0.244141
44.9	64.6973	-0.183105
45	65.0024	-0.244141
45.1	64.0869	-0.335693
45.2	63.1714	-0.213623
45.3	62.8662	-0.274658
45.4	63.4766	-0.335693
45.5	64.0869	-0.183105
45.6	63.7817	-0.183105
45.7	63.7817	-0.305176
45.8	63.4766	-0.305176
45.9	63.4766	-0.213623
46	63.4766	-0.183105
46.1	63.7817	-0.244141
46.2	63.7817	-0.366211
46.3	64.0869	-0.244141
46.4	65.0024	-0.244141
46.5	64.6973	-0.366211
46.6	64.0869	-0.305176
46.7	63.1714	-0.213623
46.8	63.7817	-0.274658
46.9	63.7817	-0.183105
47	63.7817	-0.335693
47.1	64.3921	-0.152588
47.2	64.3921	-0.183105
47.3	63.7817	-0.396729
47.4	63.7817	-0.335693
47.5	63.1714	-0.213623
47.6	63.7817	-0.183105
47.7	63.7817	-0.213623
47.8	63.4766	-0.274658
47.9	62.561	-0.305176
48	62.561	-0.213623
48.1	63.1714	-0.183105
48.2	63.1714	-0.305176
48.3	63.1714	-0.213623
48.4	63.4766	-0.244141
48.5	64.0869	-0.366211
48.6	63.1714	-0.274658
48.7	62.8662	-0.213623
48.8	63.4766	-0.305176
48.9	63.7817	-0.244141
49	63.7817	-0.213623
49.1	64.3921	-0.305176
49.2	64.0869	-0.183105
49.3	63.7817	-0.335693
49.4	63.7817	-0.213623
49.5	65.0024	-0.335693
49.6	64.6973	-0.274658
49.7	63.4766	-0.366211
49.8	63.1714	-0.244141
49.9	63.7817	-0.305176
50	63.7817	-0.152588
50.1	63.4766	-0.152588
50.2	63.7817	-5.31006
50.3	53.1006	-5.15747
50.4	-41.5039	-5.18799
50.5	-142.517	-5.31006
50.6	-157.776	-5.18799
50.7	-156.86	-5.37109
50.8	-162.048	-5.18799
50.9	-161.743	-5.27954
51	-159.912	-5.21851
51.1	-159.607	-5.18799
51.2	-158.386	-5.21851
51.3	-158.386	-5.12695
51.4	-157.776	-5.31006
51.5	-155.64	-5.15747
51.6	-155.029	-5.27954
51.7	-155.334	-5.18799
51.8	-156.25	-5.21851
51.9	-156.25	-5.31006
52	-157.776	-5.15747
52.1	-157.471	-5.21851
52.2	-156.25	-5.27954
52.3	-154.724	-5.15747
52.4	-155.334	-5.12695
52.5	-156.555	-5.24902
52.6	-155.945	-5.18799
52.7	-156.25	-5.15747
52.8	-155.029	-5.27954
52.9	-155.029	-5.12695
53	-155.334	-5.24902
53.1	-152.893	-5.27954
53.2	-155.945	-5.21851
53.3	-156.555	-5.31006
53.4	-152.893	-5.18799
53.5	-151.672	-5.18799
53.6	-152.588	-5.31006
53.7	-152.588	-5.12695
53.8	-152.893	-5.27954
53.9	-156.25	-5.15747
54	-158.691	-5.31006
54.1	-157.776	-5.18799
54.2	-155.029	-5.31006
54.3	-155.334	-5.21851
54.4	-156.25	-5.21851
54.5	-156.25	-5.31006
54.6	-158.691	-5.12695
54.7	-158.081	-5.24902
54.8	-157.776	-5.15747
54.9	-156.25	-5.31006
55	-157.471	-5.18799
55.1	-158.386	-5.34058
55.2	-156.86	-5.21851
55.3	-155.945	-5.27954
55.4	-155.334	-5.18799
55.5	-154.114	-5.31006
55.6	-153.503	-5.15747
55.7	-154.114	-5.18799
55.8	-153.809	-5.27954
55.9	-155.334	-5.18799
56	-157.166	-5.31006
56.1	-158.997	-5.18799
56.2	-157.776	-5.34058
56.3	-154.114	-5.15747
56.4	-152.588	-5.24902
56.5	-155.945	-5.24902
56.6	-157.166	-5.12695
56.7	-155.64	-5.21851
56.8	-154.419	-5.27954
56.9	-156.86	-5.12695
57	-158.997	-5.27954
57.1	-157.776	-5.18799
57.2	-154.419	-5.31006
57.3	-155.029	-5.21851
57.4	-156.555	-5.31006
57.5	-155.64	-5.18799
57.6	-155.334	-5.27954
57.7	-155.64	-5.15747
57.8	-155.029	-5.24902
57.9	-154.724	-5.24902
58	-155.029	-5.18799
58.1	-155.945	-5.12695
58.2	-154.419	-5.31006
58.3	-155.945	-5.18799
58.4	-155.945	-5.34058
58.5	-155.64	-5.21851
58.6	-155.64	-5.31006
58.7	-153.198	-5.18799
58.8	-153.198	-5.24902
58.9	-154.419	-5.21851
59	-155.029	-5.12695
59.1	-153.503	-5.31006
59.2	-153.503	-5.15747
59.3	-154.114	-5.18799
59.4	-154.114	-5.31006
59.5	-155.64	-5.21851
59.6	-153.809	-5.34058
59.7	-152.588	-5.18799
59.8	-154.114	-5.34058
59.9	-153.503	-5.15747
60	-152.893	-5.15747
60.1	-155.029	-5.21851
60.2	-158.997	-10.1013
60.3	-179.443	-10.1929
60.4	-270.996	-10.1318
60.5	-323.486	-10.2539
60.6	-324.707	-10.1624
60.7	-330.2	-10.2539
60.8	-332.642	-10.2539
60.9	-332.336	-10.1929
61	-333.557	-10.2539
61.1	-335.999	-10.1318
61.2	-332.336	-10.2539
61.3	-330.2	-10.1318
61.4	-332.336	-10.2539
61.5	-330.2	-10.1013
61.6	-323.792	-10.1624
61.7	-330.811	-10.2539
61.8	-335.083	-10.1929
61.9	-332.947	-10.2234
62	-332.642	-10.2234
62.1	-330.505	-10.2539
62.2	-328.674	-10.1013
62.3	-329.285	-10.2844
62.4	-331.726	-10.0708
62.5	-328.674	-10.1929
62.6	-323.181	-10.2234
62.7	-322.571	-10.2234
62.8	-327.454	-10.1624
62.9	-334.167	-10.2234
63	-334.167	-10.1624
63.1	-332.031	-10.2844
63.2	-337.524	-10.1318
63.3	-339.05	-10.2234
63.4	-337.219	-10.2539
63.5	-333.252	-10.1013
63.6	-332.031	-10.2539
63.7	-330.2	-10.1624
63.8	-327.759	-10.3149
63.9	-329.895	-10.1318
64	-331.116	-10.2539
64.1	-329.59	-10.1013
64.2	-330.811	-10.2539
64.3	-329.895	-10.1929
64.4	-325.623	-10.1624
64.5	-320.74	-10.2844
64.6	-318.909	-10.1318
64.7	-319.824	-10.3149
64.8	-324.097	-10.1318
64.9	-325.317	-10.2844
65	-326.538	-10.1624
65.1	-325.928	-10.1624
65.2	-321.35	-10.2539
65.3	-319.519	-10.1318
65.4	-326.233	-10.2234
65.5	-327.454	-10.1318
65.6	-322.266	-10.2844
65.7	-321.655	-10.1929
65.8	-326.233	-10.2844
65.9	-328.369	-10.1624
66	-325.623	-10.2539
66.1	-320.74	-10.1318
66.2	-318.604	-10.2844
66.3	-322.571	-10.1318
66.4	-325.928	-10.2539
66.5	-331.726	-10.1013
66.6	-330.505	-10.3149
66.7	-324.097	-10.1929
66.8	-325.928	-10.2539
66.9	-329.285	-10.2539
67	-329.895	-10.1013
67.1	-325.317	-10.2844
67.2	-321.655	-10.1624
67.3	-323.486	-10.2539
67.4	-326.843	-10.1318
67.5	-324.097	-10.2539
67.6	-319.824	-10.1318
67.7	-317.993	-10.2539
67.8	-318.604	-10.1318
67.9	-322.571	-10.2844
68	-320.435	-10.1318
68.1	-316.467	-10.2844
68.2	-319.824	-10.1624
68.3	-322.266	-10.2234
68.4	-321.96	-10.2234
68.5	-319.824	-10.0708
68.6	-317.993	-10.2234
68.7	-318.604	-10.3149
68.8	-321.655	-10.1929
68.9	-322.266	-10.2539
69	-324.402	-10.2539
69.1	-325.928	-10.1318
69.2	-322.266	-10.2539
69.3	-319.519	-10.1013
69.4	-321.35	-10.2539
69.5	-325.623	-10.1318
69.6	-325.928	-10.2844
69.7	-326.843	-10.1929
69.8	-326.233	-10.2844
69.9	-323.181	-10.1929
70	-321.96	-10.2539
70.1	-321.96	-10.1929
70.2	-323.792	-10.1929
70.3	-323.486	-15.1367
70.4	-338.745	-15.2283
70.5	-405.273	-15.1978
70.6	-451.05	-15.1062
70.7	-455.322	-15.2588
70.8	-455.322	-15.1367
70.9	-450.745	-15.1367
71	-447.083	-15.3198
71.1	-444.336	-15.1367
71.2	-448.608	-15.2283
71.3	-452.271	-15.1978
71.4	-454.407	-15.1367
71.5	-451.66	-15.2588
71.6	-453.186	-15.1062
71.7	-451.66	-15.2588
71.8	-452.271	-15.1367
71.9	-447.998	-15.1672
72	-448.914	-15.2893
72.1	-450.439	-15.1978
72.2	-449.524	-15.1367
72.3	-441.589	-15.2893
72.4	-439.453	-15.2283
72.5	-448.914	-15.1978
72.6	-459.29	-15.3198
72.7	-458.069	-15.1672
72.8	-453.186	-15.2588
72.9	-451.05	-15.1367
73	-450.439	-15.2588
73.1	-441.589	-15.1367
73.2	-438.843	-15.2283
73.3	-442.81	-15.1672
73.4	-440.979	-15.1062
73.5	-429.688	-15.2588
73.6	-433.655	-15.1367
73.7	-444.946	-15.2893
73.8	-448.914	-15.1672
73.9	-443.115	-15.2588
74	-443.115	-15.2588
74.1	-445.557	-15.1672
74.2	-441.284	-15.2588
74.3	-438.232	-15.2283
74.4	-437.317	-15.2893
74.5	-440.979	-15.1672
74.6	-442.505	-15.2893
74.7	-443.726	-15.1367
74.8	-443.115	-15.2283
74.9	-441.284	-15.2283
75	-442.505	-15.1062
75.1	-446.167	-15.1978
75.2	-450.745	-15.1367
75.3	-448.914	-15.2588
75.4	-440.674	-15.1062
75.5	-445.557	-15.2588
75.6	-451.355	-15.1367
75.7	-444.031	-15.2588
75.8	-449.524	-15.1367
75.9	-442.2	-15.2283
76	-431.824	-15.2588
76.1	-436.707	-15.1367
76.2	-437.622	-15.2283
76.3	-433.96	-15.2283
76.4	-428.467	-15.1978
76.5	-431.824	-15.1978
76.6	-433.35	-15.2283
76.7	-437.622	-15.1978
76.8	-441.284	-15.2283
76.9	-436.096	-15.2283
77	-435.791	-15.1672
77.1	-438.843	-15.2588
77.2	-440.369	-15.2588
77.3	-442.2	-15.1672
77.4	-439.148	-15.2283
77.5	-428.467	-15.1672
77.6	-429.382	-15.1062
77.7	-433.655	-15.2588
77.8	-428.772	-15.1367
77.9	-427.246	-15.2283
78	-423.889	-15.1367
78.1	-428.162	-15.1672
78.2	-441.284	-15.2588
78.3	-444.641	-15.0757
78.4	-432.739	-15.2893
78.5	-432.739	-15.1367
78.6	-439.453	-15.2283
78.7	-437.012	-15.1672
78.8	-435.181	-15.1367
78.9	-438.232	-15.2893
79	-435.791	-15.1062
79.1	-431.519	-15.1978
79.2	-435.486	-15.1672
79.3	-430.908	-15.2283
79.4	-429.077	-15.1672
79.5	-428.467	-15.2893
79.6	-423.889	-15.1672
79.7	-426.025	-15.1672
79.8	-435.181	-15.2893
79.9	-435.791	-15.1672
80	-433.044	-15.2588
80.1	-429.382	-15.2283
80.2	-424.5	-20.1416
80.3	-434.265	-20.1416
80.4	-482.788	-20.1416
80.5	-527.649	-20.2026
80.6	-531.616	-20.0806
80.7	-525.208	-20.2637
80.8	-515.747	-20.1416
80.9	-509.033	-20.2332
81	-520.935	-20.1416
81.1	-520.63	-20.1111
81.2	-518.188	-20.2637
81.3	-520.02	-20.1721
81.4	-516.052	-20.2942
81.5	-509.033	-20.1416
81.6	-512.085	-20.2637
81.7	-519.714	-20.2026
81.8	-516.968	-20.2332
81.9	-511.169	-20.2942
82	-510.864	-20.1721
82.1	-516.663	-20.2332
82.2	-517.273	-20.2026
82.3	-503.54	-20.1721
82.4	-499.573	-20.1721
82.5	-509.644	-20.2332
82.6	-507.507	-20.1111
82.7	-500.793	-20.2026
82.8	-498.047	-20.1416
82.9	-498.657	-20.2332
83	-508.728	-20.1111
83.1	-521.545	-20.2332
83.2	-509.949	-20.1416
83.3	-495.3	-20.2332
83.4	-500.488	-20.1721
83.5	-510.559	-20.1416
83.6	-508.423	-20.2332
83.7	-506.897	-20.1416
83.8	-510.864	-20.2942
83.9	-503.845	-20.1721
84	-499.573	-20.1721
84.1	-498.657	-20.2942
84.2	-502.014	-20.1721
84.3	-501.404	-20.2637
84.4	-504.761	-20.2026
84.5	-511.78	-20.1721
84.6	-504.15	-20.2332
84.7	-501.404	-20.1111
84.8	-501.709	-20.2637
84.9	-501.099	-20.1111
85	-501.404	-20.2637
85.1	-500.183	-20.1721
85.2	-505.066	-20.1721
85.3	-496.216	-20.2026
85.4	-500.793	-20.1721
85.5	-509.033	-20.1111
85.6	-492.859	-20.1721
85.7	-489.807	-20.2637
85.8	-498.047	-20.2026
85.9	-503.54	-20.1416
86	-506.592	-20.2332
86.1	-505.676	-20.2942
86.2	-502.319	-20.1416
86.3	-509.033	-20.1721
86.4	-513.916	-20.2942
86.5	-508.423	-20.1416
86.6	-500.793	-20.2332
86.7	-495.3	-20.2332
86.8	-495.3	-20.1416
86.9	-489.807	-20.1111
87	-483.704	-20.2637
87.1	-485.229	-20.1111
87.2	-495.605	-20.2026
87.3	-501.709	-20.2332
87.4	-495.911	-20.1111
87.5	-482.788	-20.2637
87.6	-482.788	-20.1111
87.7	-488.892	-20.2332
87.8	-489.197	-20.1416
87.9	-485.535	-20.2637
88	-489.502	-20.1416
88.1	-484.619	-20.3247
88.2	-476.074	-20.1721
88.3	-475.769	-20.2637
88.4	-483.398	-20.1416
88.5	-485.84	-20.2332
88.6	-487.061	-20.1721
88.7	-476.379	-20.1721
88.8	-480.652	-20.1416
88.9	-484.009	-20.2332
89	-471.497	-20.1111
89.1	-470.886	-20.1721
89.2	-475.159	-20.2332
89.3	-477.295	-20.1721
89.4	-477.295	-20.2637
89.5	-472.107	-20.2332
89.6	-467.529	-20.1111
89.7	-471.191	-20.2637
89.8	-473.938	-20.1416
89.9	-480.957	-20.1416
90	-478.821	-20.2332
90.1	-470.581	-20.1111
90.2	-468.75	-20.1416
90.3	-473.022	-25.2686
90.4	-480.042	-25.177
90.5	-517.883	-25.177
90.6	-544.434	-25.177
90.7	-537.72	-25.2686
90.8	-524.902	-25.2075
90.9	-521.24	-25.177
91	-528.259	-25.2991
91.1	-535.583	-25.1465
91.2	-540.161	-25.116
91.3	-531.921	-25.2686
91.4	-524.292	-25.177
91.5	-517.578	-25.1465
91.6	-523.987	-25.2686
91.7	-526.733	-25.177
91.8	-515.442	-25.2686
91.9	-510.559	-25.238
92	-515.747	-25.177
92.1	-523.987	-25.2075
92.2	-520.935	-25.116
92.3	-504.456	-25.238
92.4	-496.521	-25.1465
92.5	-510.254	-25.1465
92.6	-517.273	-25.2686
92.7	-516.968	-25.1465
92.8	-529.175	-25.116
92.9	-519.714	-25.3296
93	-502.014	-25.2991
93.1	-499.878	-25.177
93.2	-506.592	-25.116
93.3	-512.085	-25.238
93.4	-506.592	-25.2075
93.5	-498.962	-25.1465
93.6	-499.878	-25.177
93.7	-505.676	-25.2075
93.8	-498.047	-25.116
93.9	-490.723	-25.2686
94	-491.943	-25.1465
94.1	-490.112	-25.238
94.2	-497.437	-25.177
94.3	-500.183	-25.238
94.4	-493.164	-25.1465
94.5	-494.08	-25.177
94.6	-492.554	-25.177
94.7	-502.014	-25.116
94.8	-506.897	-25.238
94.9	-496.521	-25.2075
95	-493.774	-25.116
95.1	-484.619	-25.238
95.2	-470.276	-25.2075
95.3	-476.99	-25.238
95.4	-491.638	-25.2686
95.5	-499.878	-25.0854
95.6	-493.774	-25.238
95.7	-498.657	-25.177
95.8	-498.962	-25.1465
95.9	-496.216	-25.2686
96	-495.911	-25.238
96.1	-494.995	-25.177
96.2	-493.774	-25.238
96.3	-491.028	-25.2075
96.4	-481.567	-25.116
96.5	-478.821	-25.2686
96.6	-484.314	-25.116
96.7	-488.892	-25.0854
96.8	-482.483	-25.2991
96.9	-482.788	-25.177
97	-483.398	-25.1465
97.1	-470.886	-25.2991
97.2	-459.29	-25.177
97.3	-455.017	-25.238
97.4	-471.802	-25.3296
97.5	-481.262	-25.1465
97.6	-478.821	-25.116
97.7	-478.821	-25.2686
97.8	-476.379	-25.177
97.9	-469.666	-25.177
98	-475.159	-25.2075
98.1	-488.281	-25.177
98.2	-488.281	-25.2686
98.3	-487.671	-25.177
98.4	-486.45	-25.2686
98.5	-475.159	-25.1465
98.6	-472.107	-25.238
98.7	-479.431	-25.177
98.8	-469.36	-25.177
98.9	-466.614	-25.2686
99	-472.412	-25.238
99.1	-469.971	-25.177
99.2	-460.51	-25.2991
99.3	-459.29	-25.177
99.4	-463.867	-25.2075
99.5	-469.971	-25.2075
99.6	-474.548	-25.116
99.7	-473.938	-25.2686
99.8	-480.347	-25.177
99.9	-471.802	-25.177
100	-460.51	-25.238
100.1	-463.867	-30.2734
100.2	-471.191	-30.1208
100.3	-485.535	-30.1514
100.4	-494.69	-30.1819
100.5	-492.249	-30.0903
100.6	-489.197	-30.1514
100.7	-492.249	-30.1819
100.8	-504.761	-30.1819
100.9	-512.085	-30.2429
101	-502.625	-30.1208
101.1	-488.892	-30.1208
101.2	-498.657	-30.2429
101.3	-487.976	-30.1208
101.4	-464.783	-30.1514
101.5	-471.497	-30.2124
101.6	-476.379	-30.0903
101.7	-483.093	-30.2429
101.8	-483.398	-30.1819
101.9	-483.704	-30.2124
102	-477.6	-30.1514
102.1	-477.6	-30.1514
102.2	-485.84	-30.1514
102.3	-480.042	-30.1514
102.4	-483.398	-30.1208
102.5	-494.69	-30.2429
102.6	-479.736	-30.0903
102.7	-462.646	-30.2734
102.8	-465.393	-30.1208
102.9	-469.055	-30.2124
103	-474.243	-30.1819
103.1	-467.529	-30.0903
103.2	-458.679	-30.2429
103.3	-455.627	-30.0903
103.4	-450.745	-30.2124
103.5	-451.05	-30.2429
103.6	-461.121	-30.1208
103.7	-468.445	-30.1514
103.8	-459.29	-30.304
103.9	-456.543	-30.1514
104	-456.238	-30.1514
104.1	-448.303	-30.2124
104.2	-458.984	-30.0903
104.3	-474.854	-30.1514
104.4	-471.191	-30.2429
104.5	-458.984	-30.2124
104.6	-460.815	-30.1514
104.7	-466.919	-30.1819
104.8	-463.867	-30.2429
104.9	-455.933	-30.1514
105	-442.81	-30.1208
105.1	-438.843	-30.2429
105.2	-445.251	-30.1819
105.3	-449.524	-30.1208
105.4	-443.42	-30.2734
105.5	-447.388	-30.1208
105.6	-458.374	-30.2429
105.7	-455.933	-30.1514
105.8	-455.017	-30.2429
105.9	-449.524	-30.0903
106	-443.726	-30.1208
106.1	-445.862	-30.2429
106.2	-447.693	-30.1208
106.3	-444.641	-30.0903
106.4	-446.167	-30.1819
106.5	-446.777	-30.2429
106.6	-449.524	-30.2124
106.7	-448.303	-30.1208
106.8	-448.914	-30.1514
106.9	-446.472	-30.2429
107	-441.589	-30.0598
107.1	-451.965	-30.1819
107.2	-458.984	-30.1208
107.3	-450.134	-30.1208
107.4	-447.693	-30.2734
107.5	-443.115	-30.1514
107.6	-436.707	-30.2124
107.7	-434.57	-30.2429
107.8	-439.148	-30.0903
107.9	-445.557	-30.1514
108	-446.777	-30.1208
108.1	-442.2	-30.1208
108.2	-429.688	-30.2429
108.3	-424.194	-30.1514
108.4	-436.707	-30.2124
108.5	-443.115	-30.2734
108.6	-445.557	-30.1514
108.7	-446.777	-30.1208
108.8	-436.401	-30.2124
108.9	-426.636	-30.0903
109	-433.655	-30.2429
109.1	-436.096	-30.1819
109.2	-432.739	-30.0903
109.3	-441.589	-30.2124
109.4	-441.284	-30.1819
109.5	-425.11	-30.1208
109.6	-424.194	-30.2429
109.7	-429.688	-30.0903
109.8	-425.415	-30.2734
109.9	-427.246	-30.0903
110	-430.603	-35.2173
110.1	-429.077	-35.0952
110.2	-437.927	-35.2478
110.3	-458.984	-35.1868
110.4	-466.919	-35.2478
110.5	-462.341	-35.1257
110.6	-455.322	-35.1563
110.7	-447.693	-35.1563
110.8	-444.336	-35.1257
110.9	-441.895	-35.2173
111	-444.946	-35.1563
111.1	-447.083	-35.1257
111.2	-446.472	-35.2783
111.3	-436.707	-35.1257
111.4	-434.57	-35.2478
111.5	-436.401	-35.1257
111.6	-430.298	-35.2783
111.7	-425.11	-35.0952
111.8	-428.467	-35.1868
111.9	-429.077	-35.1563
112	-440.979	-35.2173
112.1	-442.2	-35.0952
112.2	-444.336	-35.2478
112.3	-442.2	-35.0952
112.4	-432.434	-35.2173
112.5	-427.551	-35.0952
112.6	-434.875	-35.1563
112.7	-437.317	-35.1563
112.8	-429.688	-35.2478
112.9	-424.5	-35.1257
113	-425.11	-35.2478
113.1	-421.448	-35.1257
113.2	-425.415	-35.0952
113.3	-424.194	-35.1563
113.4	-422.363	-35.1257
113.5	-420.532	-35.2478
113.6	-423.279	-35.1257
113.7	-427.246	-35.2783
113.8	-433.044	-35.1868
113.9	-430.908	-35.1868
114	-425.72	-35.1257
114.1	-419.617	-35.1563
114.2	-417.786	-35.1868
114.3	-418.091	-35.0952
114.4	-415.039	-35.2783
114.5	-416.26	-35.1257
114.6	-420.532	-35.3088
114.7	-415.344	-35.1257
114.8	-408.936	-35.2173
114.9	-420.227	-35.1257
115	-411.377	-35.1563
115.1	-397.034	-35.1868
115.2	-414.124	-35.1563
115.3	-423.889	-35.2783
115.4	-421.143	-35.0952
115.5	-423.889	-35.2173
115.6	-416.87	-35.1257
115.7	-407.104	-35.1868
115.8	-406.189	-35.1563
115.9	-403.442	-35.1868
116	-404.968	-35.1563
116.1	-415.039	-35.2173
116.2	-419.312	-35.1563
116.3	-412.903	-35.0952
116.4	-410.767	-35.2783
116.5	-416.26	-35.0647
116.6	-413.208	-35.1868
116.7	-408.325	-35.2783
116.8	-411.987	-35.1257
116.9	-418.091	-35.1868
117	-416.26	-35.1257
117.1	-400.696	-35.1563
117.2	-411.072	-35.1257
117.3	-425.72	-35.2478
117.4	-415.039	-35.1563
117.5	-412.292	-35.2173
117.6	-405.579	-35.1563
117.7	-401.001	-35.0647
117.8	-402.832	-35.1563
117.9	-406.494	-35.1257
118	-410.767	-35.1563
118.1	-399.17	-35.1563
118.2	-401.611	-35.1868
118.3	-419.312	-35.1868
118.4	-411.682	-35.0952
118.5	-406.494	-35.2173
118.6	-404.053	-35.0647
118.7	-384.827	-35.2478
118.8	-378.723	-35.1257
118.9	-395.203	-35.2478
119	-402.832	-35.1563
119.1	-398.254	-35.1563
119.2	-399.475	-35.1868
119.3	-397.949	-35.0647
119.4	-398.865	-35.2173
119.5	-389.709	-35.2783
119.6	-387.878	-35.0952
119.7	-393.982	-35.1257
119.8	-395.203	-35.2173
119.9	-397.339	-35.2478
120	-398.56	-35.2173
120.1	-394.592	-35.1257
120.2	-407.41	-40.1611
120.3	-415.344	-40.2527
120.4	-418.091	-40.0696
120.5	-418.396	-40.1611
120.6	-424.5	-40.2527
120.7	-413.208	-40.1611
120.8	-395.203	-40.1917
120.9	-389.709	-40.2222
121	-387.573	-40.1611
121.1	-391.541	-40.1001
121.2	-395.508	-40.1306
121.3	-399.475	-40.2527
121.4	-407.715	-40.1611
121.5	-399.17	-40.1611
121.6	-388.184	-40.2222
121.7	-383.301	-40.2222
121.8	-384.827	-40.1306
121.9	-387.878	-40.1306
122	-394.897	-40.2222
122.1	-401.001	-40.2527
122.2	-401.001	-40.1306
122.3	-388.794	-40.0696
122.4	-384.216	-40.2222
122.5	-387.878	-40.2222
122.6	-391.846	-40.1917
122.7	-386.047	-40.2832
122.8	-373.84	-40.1001
122.9	-375.366	-40.2222
123	-375.366	-40.1306
123.1	-377.808	-40.1917
123.2	-382.69	-40.2222
123.3	-382.69	-40.1917
123.4	-380.859	-40.1611
123.5	-380.554	-40.1001
123.6	-384.521	-40.1611
123.7	-383.606	-40.1917
123.8	-385.437	-40.2527
123.9	-382.69	-40.1611
124	-370.483	-40.1917
124.1	-374.451	-40.1001
124.2	-377.502	-40.2222
124.3	-377.502	-40.1611
124.4	-379.028	-40.1917
124.5	-374.756	-40.1611
124.6	-378.113	-40.1611
124.7	-376.587	-40.1917
124.8	-373.535	-40.1611
124.9	-381.775	-40.2527
125	-383.606	-40.1611
125.1	-387.268	-40.1917
125.2	-389.099	-40.1306
125.3	-373.84	-40.2527
125.4	-372.925	-40.1306
125.5	-378.418	-40.1917
125.6	-373.84	-40.2832
125.7	-374.756	-40.1001
125.8	-375.671	-40.1611
125.9	-370.789	-40.2527
126	-364.99	-40.1306
126.1	-364.99	-40.1611
126.2	-371.399	-40.2832
126.3	-375.671	-40.1306
126.4	-378.418	-40.1001
126.5	-382.996	-40.2222
126.6	-381.165	-40.1611
126.7	-382.385	-40.1611
126.8	-377.808	-40.1611
126.9	-364.99	-40.1001
127	-356.445	-40.2222
127.1	-359.802	-40.1611
127.2	-366.516	-40.2527
127.3	-373.535	-40.1306
127.4	-367.126	-40.1611
127.5	-372.314	-40.2527
127.6	-379.333	-40.1306
127.7	-376.282	-40.2832
127.8	-377.808	-40.1917
127.9	-380.859	-40.1306
128	-380.249	-40.1917
128.1	-375.977	-40.1611
128.2	-377.502	-40.2527
128.3	-375.061	-40.1611
128.4	-368.652	-40.1306
128.5	-370.178	-40.2222
128.6	-359.192	-40.1306
128.7	-358.887	-40.1611
128.8	-360.413	-40.2832
128.9	-360.718	-40.1306
129	-371.094	-40.0696
129.1	-374.146	-40.2222
129.2	-368.958	-40.2222
129.3	-376.892	-40.1611
129.4	-387.573	-40.1917
129.5	-376.587	-40.2222
129.6	-362.854	-40.1001
129.7	-362.854	-40.1306
129.8	-370.178	-40.2832
129.9	-370.178	-40.1306
130	-363.159	-40.1917
130.1	-351.257	-40.2222
130.2	-348.206	-45.0745
130.3	-357.056	-45.1355
130.4	-364.685	-45.1965
130.5	-365.601	-45.1355
130.6	-364.075	-45.0745
130.7	-364.99	-45.105
130.8	-358.887	-45.2881
130.9	-357.666	-45.105
131	-360.718	-45.0745
131.1	-357.361	-45.2271
131.2	-351.563	-45.1355
131.3	-343.933	-45.166
131.4	-349.121	-45.2271
131.5	-348.816	-45.0745
131.6	-344.543	-45.166
131.7	-345.764	-45.1965
131.8	-350.952	-45.105
131.9	-343.933	-45.1355
132	-340.576	-45.1965
132.1	-347.9	-45.0745
132.2	-340.881	-45.0745
132.3	-345.459	-45.2881
132.4	-347.29	-45.105
132.5	-348.206	-45.166
132.6	-350.342	-45.166
132.7	-355.53	-45.1355
132.8	-355.835	-45.2271
132.9	-339.966	-45.1965
133	-330.811	-45.0745
133.1	-328.369	-45.0745
133.2	-332.642	-45.166
133.3	-339.355	-45.1965
133.4	-336.609	-45.2576
133.5	-337.219	-45.0745
133.6	-332.642	-45.0745
133.7	-330.2	-45.1355
133.8	-337.524	-45.2271
133.9	-339.05	-45.2271
134	-342.102	-45.166
134.1	-349.731	-45.0745
134.2	-357.056	-45.105
134.3	-354.919	-45.2576
134.4	-341.187	-45.105
134.5	-339.355	-45.0439
134.6	-341.797	-45.1355
134.7	-333.862	-45.1965
134.8	-332.031	-45.2271
134.9	-336.914	-45.1355
135	-340.576	-45.0745
135.1	-337.219	-45.105
135.2	-332.642	-45.1965
135.3	-323.181	-45.1965
135.4	-318.604	-45.105
135.5	-327.759	-45.0745
135.6	-330.2	-45.166
135.7	-333.252	-45.1355
135.8	-333.252	-45.105
135.9	-327.759	-45.2881
136	-324.097	-45.105
136.1	-325.317	-45.0745
136.2	-325.317	-45.2576
136.3	-325.012	-45.1355
136.4	-325.623	-45.105
136.5	-331.116	-45.1355
136.6	-336.304	-45.166
136.7	-317.993	-45.2271
136.8	-312.5	-45.1355
136.9	-326.233	-45.105
137	-334.167	-45.1355
137.1	-343.628	-45.1965
137.2	-328.979	-45.1965
137.3	-322.571	-45.166
137.4	-319.519	-45.1355
137.5	-317.688	-45.1355
137.6	-328.369	-45.1965
137.7	-332.642	-45.105
137.8	-328.064	-45.105
137.9	-326.538	-45.2271
138	-327.148	-45.2271
138.1	-334.167	-45.1355
138.2	-328.674	-45.0745
138.3	-325.012	-45.105
138.4	-324.707	-45.2576
138.5	-320.435	-45.166
138.6	-320.435	-45.105
138.7	-325.928	-45.166
138.8	-328.979	-45.1965
138.9	-327.148	-45.166
139	-323.792	-45.105
139.1	-313.721	-45.0439
139.2	-302.124	-45.1355
139.3	-300.903	-45.2271
139.4	-313.721	-45.1965
139.5	-314.941	-45.0745
139.6	-310.974	-45.1355
139.7	-316.467	-45.1965
139.8	-313.721	-45.166
139.9	-309.143	-45.105
140	-313.11	-45.166
140.1	-317.078	-50.2319
140.2	-304.871	-50.1709
140.3	-311.89	-50.0793
140.4	-313.416	-50.1099
140.5	-310.364	-50.0793
140.6	-313.416	-50.2014
140.7	-319.824	-50.2319
140.8	-318.298	-50.1099
140.9	-315.552	-50.1709
141	-315.857	-50.2014
141.1	-303.345	-50.2014
141.2	-287.476	-50.1404
141.3	-290.833	-50.1099
141.4	-300.293	-50.1709
141.5	-309.143	-50.0488
141.6	-301.514	-50.1099
141.7	-299.377	-50.0793
141.8	-297.241	-50.1709
141.9	-299.683	-50.1404
142	-300.903	-50.0793
142.1	-294.495	-50.0793
142.2	-296.631	-50.0488
142.3	-292.969	-50.1099
142.4	-289.612	-50.1404
142.5	-289.917	-50.1099
142.6	-285.645	-50.1404
142.7	-289.001	-50.1709
142.8	-291.138	-50.2319
142.9	-290.222	-50.2625
143	-280.457	-50.1709
143.1	-282.898	-50.1709
143.2	-294.495	-50.1404
143.3	-300.598	-50.1099
143.4	-292.053	-50.1099
143.5	-281.982	-50.0793
143.6	-275.269	-50.2014
143.7	-277.1	-50.2319
143.8	-281.372	-50.2014
143.9	-285.339	-50.0793
144	-292.053	-50.1404
144.1	-290.833	-50.2014
144.2	-289.612	-50.1099
144.3	-276.794	-50.1709
144.4	-266.113	-50.0793
144.5	-280.457	-50.1404
144.6	-290.527	-50.2014
144.7	-290.833	-50.1709
144.8	-278.32	-50.0793
144.9	-279.846	-50.0793
145	-278.015	-50.1404
145.1	-278.32	-50.2319
145.2	-280.457	-50.2319
145.3	-272.522	-50.1099
145.4	-266.418	-50.0488
145.5	-266.418	-50.0793
145.6	-265.503	-50.1404
145.7	-273.743	-50.2319
145.8	-282.898	-50.1709
145.9	-264.282	-50.2014
146	-258.179	-50.1099
146.1	-261.841	-50.1404
146.2	-260.925	-50.2319
146.3	-267.029	-50.1709
146.4	-270.691	-50.0793
146.5	-274.048	-50.1099
146.6	-276.794	-50.2625
146.7	-271.606	-50.1404
146.8	-269.775	-50.1099
146.9	-269.165	-50.1709
147	-271.912	-50.1099
147.1	-267.334	-50.1709
147.2	-259.705	-50.2014
147.3	-261.23	-50.1404
147.4	-270.081	-50.0793
147.5	-266.113	-50.1099
147.6	-263.672	-50.1099
147.7	-260.925	-50.0488
147.8	-245.972	-50.0793
147.9	-253.296	-50.0793
148	-272.522	-50.1709
148.1	-270.691	-50.2319
148.2	-266.418	-50.2014
148.3	-266.418	-50.2319
148.4	-259.094	-50.2625
148.5	-256.653	-50.2319
148.6	-261.536	-50.2014
148.7	-258.789	-50.2014
148.8	-253.296	-50.2319
148.9	-253.906	-50.2625
149	-262.756	-50.2319
149.1	-262.756	-50.1709
149.2	-260.315	-50.2319
149.3	-261.23	-50.2319
149.4	-266.724	-50.2319
149.5	-270.386	-50.1404
149.6	-264.893	-50.2014
149.7	-265.808	-50.2319
149.8	-267.944	-50.2319
149.9	-270.996	-50.2319
150	-270.996	-50.2319
150.1	-268.86	-50.2014
150.2	-265.198	-55.2368
150.3	-267.944	-55.2673
150.4	-287.781	-55.0842
150.5	-280.457	-55.0537
150.6	-263.977	-55.0842
150.7	-258.789	-55.1453
150.8	-258.789	-55.1758
150.9	-258.789	-55.1758
151	-257.874	-55.2063
151.1	-249.329	-55.1147
151.2	-248.413	-55.1147
151.3	-251.465	-55.1147
151.4	-248.413	-55.1758
151.5	-242.615	-55.0842
151.6	-242.004	-55.1758
151.7	-244.751	-55.0842
151.8	-247.498	-55.1758
151.9	-246.582	-55.0537
152	-246.277	-55.2063
152.1	-249.329	-55.0842
152.2	-240.173	-55.1453
152.3	-231.628	-55.1758
152.4	-237.732	-55.2063
152.5	-236.511	-55.0537
152.6	-237.732	-55.1758
152.7	-235.901	-55.2063
152.8	-231.628	-55.1453
152.9	-234.68	-55.0842
153	-232.849	-55.1453
153.1	-225.83	-55.2368
153.2	-223.389	-55.0842
153.3	-223.083	-55.0537
153.4	-223.999	-55.0842
153.5	-225.525	-55.2063
153.6	-224.915	-55.2673
153.7	-218.201	-55.1453
153.8	-213.928	-55.0842
153.9	-221.558	-55.0842
154	-230.103	-55.1758
154.1	-234.68	-55.2368
154.2	-231.934	-55.0842
154.3	-230.408	-55.0842
154.4	-220.032	-55.2368
154.5	-205.994	-55.1453
154.6	-209.961	-55.1758
154.7	-219.421	-55.1453
154.8	-223.389	-55.0537
154.9	-222.473	-55.1758
155	-218.201	-55.2368
155.1	-208.74	-55.1147
155.2	-202.637	-55.0842
155.3	-213.013	-55.2063
155.4	-227.661	-55.1758
155.5	-231.018	-55.0842
155.6	-222.168	-55.1147
155.7	-214.844	-55.2063
155.8	-213.928	-55.1758
155.9	-214.844	-55.1147
156	-211.487	-55.1147
156.1	-212.097	-55.2979
156.2	-213.623	-55.1147
156.3	-216.064	-55.0842
156.4	-213.013	-55.1147
156.5	-214.539	-55.2063
156.6	-220.032	-55.2673
156.7	-222.778	-55.1147
156.8	-222.473	-55.0842
156.9	-213.013	-55.1453
157	-211.182	-55.2368
157.1	-215.454	-55.0842
157.2	-213.013	-55.0537
157.3	-215.149	-55.2063
157.4	-216.064	-55.1147
157.5	-211.792	-55.1453
157.6	-210.571	-55.2063
157.7	-207.214	-55.1758
157.8	-202.942	-55.0842
157.9	-194.702	-55.0842
158	-201.721	-55.2368
158.1	-207.214	-55.0842
158.2	-202.637	-55.0842
158.3	-202.026	-55.2368
158.4	-203.247	-55.1147
158.5	-198.975	-55.2673
158.6	-190.735	-55.0842
158.7	-198.059	-55.1147
158.8	-203.857	-55.1758
158.9	-205.994	-55.2673
159	-212.097	-55.2368
159.1	-205.994	-55.0537
159.2	-201.111	-55.1147
159.3	-200.806	-55.2063
159.4	-200.806	-55.1147
159.5	-195.313	-55.1758
159.6	-193.787	-55.2063
159.7	-202.942	-55.1147
159.8	-208.435	-55.1453
159.9	-202.942	-55.2368
160	-197.754	-55.1453
160.1	-198.059	-60.0891
160.2	-195.313	-60.2112
160.3	-201.111	-60.1196
160.4	-204.163	-60.1501
160.5	-196.838	-60.2112
160.6	-196.228	-60.1501
160.7	-198.364	-60.0891
160.8	-190.735	-60.2722
160.9	-187.073	-60.0891
161	-189.514	-60.1196
161.1	-191.65	-60.1807
161.2	-193.176	-60.0891
161.3	-188.293	-60.1807
161.4	-184.326	-60.2417
161.5	-184.631	-60.0586
161.6	-181.885	-60.1501
161.7	-179.138	-60.1807
161.8	-178.223	-60.1501
161.9	-184.021	-60.2112
162	-190.125	-60.0586
162.1	-185.852	-60.2112
162.2	-175.171	-60.1501
162.3	-173.34	-60.1807
162.4	-175.171	-60.1501
162.5	-172.424	-60.0586
162.6	-170.288	-60.2417
162.7	-176.392	-60.1196
162.8	-180.664	-60.2722
162.9	-177.612	-60.0891
163	-163.879	-60.2112
163.1	-155.029	-60.0586
163.2	-158.386	-60.1501
163.3	-165.71	-60.1501
163.4	-170.593	-60.1807
163.5	-180.359	-60.0891
163.6	-176.697	-60.2112
163.7	-172.729	-60.1196
163.8	-173.645	-60.2112
163.9	-169.067	-60.0891
164	-161.133	-60.1501
164.1	-163.879	-60.1196
164.2	-167.236	-60.2112
164.3	-167.847	-60.1196
164.4	-164.49	-60.0891
164.5	-161.133	-60.2112
164.6	-158.997	-60.1196
164.7	-162.048	-60.2112
164.8	-158.691	-60.1501
164.9	-152.893	-60.1196
165	-156.86	-60.2417
165.1	-159.607	-60.1196
165.2	-153.503	-60.2417
165.3	-151.672	-60.0586
165.4	-148.926	-60.0891
165.5	-148.315	-60.2417
165.6	-145.874	-60.1807
165.7	-142.212	-60.1501
165.8	-145.569	-60.0586
165.9	-144.958	-60.2112
166	-140.686	-60.1196
166.1	-130.31	-60.1501
166.2	-133.057	-60.2112
166.3	-144.653	-60.1501
166.4	-140.381	-60.0586
166.5	-134.277	-60.2417
166.6	-136.414	-60.1501
166.7	-134.888	-60.0891
166.8	-146.79	-60.2112
166.9	-151.062	-60.1196
167	-140.381	-60.2417
167.1	-135.498	-60.0586
167.2	-137.329	-60.1196
167.3	-144.043	-60.1501
167.4	-143.433	-60.1196
167.5	-136.414	-60.1807
167.6	-138.245	-60.2112
167.7	-140.991	-60.0891
167.8	-139.16	-60.1807
167.9	-135.803	-60.1807
168	-139.16	-60.1196
168.1	-144.043	-60.1501
168.2	-149.536	-60.1196
168.3	-148.01	-60.1501
168.4	-144.653	-60.2417
168.5	-145.569	-60.0586
168.6	-140.381	-60.2112
168.7	-136.108	-60.1807
168.8	-137.329	-60.1196
168.9	-143.433	-60.2112
169	-144.958	-60.0891
169.1	-138.55	-60.1196
169.2	-136.108	-60.2112
169.3	-134.583	-60.1501
169.4	-138.55	-60.1807
169.5	-140.686	-60.1501
169.6	-137.939	-60.0586
169.7	-137.329	-60.2722
169.8	-137.939	-60.1501
169.9	-136.719	-60.1196
170	-134.888	-60.1807
170.1	-139.771	-65.094
170.2	-146.179	-65.2161
170.3	-142.822	-65.1245
170.4	-137.329	-65.033
170.5	-135.498	-65.1245
170.6	-132.141	-65.2161
170.7	-137.329	-65.1245
170.8	-144.043	-65.033
170.9	-138.245	-65.2161
171	-135.193	-65.033
171.1	-135.193	-65.2161
171.2	-131.226	-65.0635
171.3	-125.122	-65.155
171.4	-120.239	-65.094
171.5	-122.375	-65.0635
171.6	-122.375	-65.2466
171.7	-117.493	-65.0635
171.8	-114.136	-65.033
171.9	-115.662	-65.2161
172	-109.863	-65.0635
172.1	-104.675	-65.155
172.2	-113.831	-65.0635
172.3	-116.577	-65.1245
172.4	-112.61	-65.0635
172.5	-109.863	-65.1245
172.6	-107.117	-65.155
172.7	-103.149	-65.033
172.8	-98.5718	-65.2161
172.9	-98.2666	-65.0635
173	-101.318	-65.2161
173.1	-102.539	-65.0635
173.2	-103.76	-65.155
173.3	-107.422	-65.094
173.4	-101.929	-65.155
173.5	-99.7925	-65.155
173.6	-101.624	-65.0635
173.7	-104.98	-65.2161
173.8	-104.065	-65.0635
173.9	-100.098	-65.094
174	-100.708	-65.2161
174.1	-97.9614	-65.0024
174.2	-95.52	-65.2161
174.3	-98.5718	-65.0635
174.4	-97.9614	-65.155
174.5	-95.8252	-65.155
174.6	-93.9941	-65.033
174.7	-90.9424	-65.1245
174.8	-85.144	-65.1855
174.9	-87.8906	-65.094
175	-93.9941	-65.0635
175.1	-89.7217	-65.094
175.2	-90.6372	-65.033
175.3	-94.2993	-65.1855
175.4	-92.1631	-65.2161
175.5	-96.7407	-65.0635
175.6	-96.1304	-65.1245
175.7	-87.5854	-65.155
175.8	-83.0078	-65.0635
175.9	-83.313	-65.155
176	-86.6699	-65.1245
176.1	-93.9941	-65.033
176.2	-99.4873	-65.1855
176.3	-95.8252	-65.1245
176.4	-95.8252	-65.155
176.5	-93.3838	-65.0635
176.6	-89.4165	-65.033
176.7	-87.2803	-65.2161
176.8	-88.1958	-65.0635
176.9	-83.0078	-65.155
177	-84.2285	-65.094
177.1	-86.3647	-65.094
177.2	-83.6182	-65.1855
177.3	-83.313	-65.0635
177.4	-82.7026	-65.155
177.5	-84.2285	-65.0635
177.6	-83.9233	-65.1855
177.7	-79.9561	-65.094
177.8	-73.5474	-65.155
177.9	-74.4629	-65.1245
178	-78.125	-65.033
178.1	-78.7354	-65.2161
178.2	-86.9751	-65.0635
178.3	-80.8716	-65.2466
178.4	-73.5474	-65.0635
178.5	-69.5801	-65.155
178.6	-68.3594	-65.1245
178.7	-71.106	-65.155
178.8	-69.2749	-65.1245
178.9	-70.1904	-65.1245
179	-74.7681	-65.033
179.1	-78.4302	-65.2466
179.2	-76.9043	-65.0635
179.3	-75.6836	-65.155
179.4	-72.3267	-65.033
179.5	-65.6128	-65.1855
179.6	-69.2749	-65.155
179.7	-74.1577	-65.094
179.8	-72.3267	-65.155
179.9	-67.1387	-65.033
180	-63.4766	-65.2466
180.1	-61.9507	-70.0989
180.2	-68.0542	-70.2209
180.3	-70.8008	-70.0378
180.4	-71.7163	-70.0073
180.5	-75.0732	-70.1599
180.6	-71.7163	-70.0989
180.7	-74.4629	-70.0684
180.8	-71.7163	-70.2209
180.9	-67.1387	-70.0378
181	-68.6646	-70.1599
181.1	-65.0024	-70.1904
181.2	-60.73	-70.0684
181.3	-68.9697	-70.1904
181.4	-72.3267	-70.0378
181.5	-67.749	-70.1294
181.6	-61.0352	-70.1599
181.7	-62.8662	-70.0378
181.8	-68.6646	-70.0684
181.9	-64.3921	-70.2209
182	-53.4058	-70.0989
182.1	-53.1006	-70.2209
182.2	-61.9507	-70.0378
182.3	-60.73	-70.1904
182.4	-59.2041	-70.0989
182.5	-56.1523	-70.1599
182.6	-53.4058	-70.1599
182.7	-49.1333	-70.1294
182.8	-52.7954	-70.0378
182.9	-57.6782	-70.1599
183	-51.8799	-70.1294
183.1	-50.9644	-70.0684
183.2	-53.7109	-70.1294
183.3	-52.1851	-70.1294
183.4	-50.0488	-70.0684
183.5	-46.6919	-70.1294
183.6	-45.4712	-70.2515
183.7	-51.8799	-70.0989
183.8	-51.5747	-70.0684
183.9	-46.3867	-70.0989
184	-45.7764	-70.2515
184.1	-49.4385	-70.0684
184.2	-50.354	-70.0378
184.3	-52.7954	-70.2209
184.4	-52.1851	-70.1599
184.5	-51.8799	-70.0989
184.6	-52.7954	-70.1904
184.7	-54.0161	-70.0989
184.8	-52.4902	-70.0378
184.9	-50.354	-70.1599
185	-56.1523	-70.2209
185.1	-56.1523	-70.0378
185.2	-49.7437	-70.0684
185.3	-45.166	-70.2209
185.4	-47.3022	-70.1294
185.5	-46.0815	-70.0378
185.6	-41.8091	-70.1294
185.7	-42.7246	-70.1294
185.8	-47.6074	-70.0989
185.9	-51.2695	-70.1904
186	-51.2695	-70.1294
186.1	-50.354	-70.0073
186.2	-49.7437	-70.0684
186.3	-44.2505	-70.2209
186.4	-41.5039	-70.1294
186.5	-39.0625	-70.1294
186.6	-45.4712	-70.1904
186.7	-46.9971	-70.0684
186.8	-39.0625	-70.1294
186.9	-35.7056	-70.0989
187	-39.0625	-70.1294
187.1	-45.4712	-70.1904
187.2	-49.7437	-70.1294
187.3	-44.8608	-70.0684
187.4	-43.0298	-70.1294
187.5	-46.3867	-70.1599
187.6	-46.9971	-70.0684
187.7	-43.0298	-70.0378
187.8	-36.6211	-70.1294
187.9	-38.7573	-70.2209
188	-43.9453	-70.1599
188.1	-45.4712	-70.0378
188.2	-42.7246	-70.0378
188.3	-39.6729	-70.0989
188.4	-39.978	-70.0684
188.5	-38.7573	-70.0684
188.6	-36.3159	-70.1599
188.7	-35.7056	-70.0989
188.8	-32.959	-70.1294
188.9	-32.959	-70.2209
189	-35.0952	-70.0378
189.1	-35.0952	-70.0684
189.2	-32.6538	-70.2209
189.3	-35.0952	-70.1294
189.4	-39.0625	-70.0989
189.5	-39.3677	-70.1599
189.6	-40.8936	-70.0378
189.7	-43.9453	-70.1904
189.8	-46.0815	-70.0684
189.9	-38.147	-70.1294
190	-33.2642	-70.1599
190.1	-33.5693	-70.0378
190.2	-37.2314	-75.0427
190.3	-44.8608	-75.1648
190.4	-44.5557	-75.0427
190.5	-40.5884	-75.0427
190.6	-46.3867	-75.1038
190.7	-44.5557	-75.0732
190.8	-47.9126	-75.1953
190.9	-56.4575	-75.0122
191	-46.9971	-75.0427
191.1	-37.8418	-75.1038
191.2	-39.978	-75.1038
191.3	-40.2832	-75.1648
191.4	-50.0488	-75.0427
191.5	-49.1333	-75.0732
191.6	-44.2505	-75.0427
191.7	-41.5039	-75.2258
191.8	-39.6729	-75.0732
191.9	-41.1987	-75.0427
192	-42.1143	-75.0732
192.1	-41.8091	-75.0427
192.2	-34.79	-75.1038
192.3	-34.1797	-75.1648
192.4	-35.7056	-75.0732
192.5	-34.4849	-74.9817
192.6	-35.4004	-75.0732
192.7	-35.7056	-75.2258
192.8	-32.6538	-75.0122
192.9	-29.9072	-75.0732
193	-33.2642	-75.0732
193.1	-32.959	-75.0732
193.2	-29.6021	-75.1953
193.3	-32.3486	-74.9817
193.4	-28.0762	-75.1343
193.5	-23.8037	-75.0122
193.6	-25.9399	-75.1343
193.7	-34.79	-75.1343
193.8	-39.3677	-75.0122
193.9	-41.1987	-75.1038
194	-39.0625	-75.0732
194.1	-33.8745	-75.0427
194.2	-28.3813	-75.1953
194.3	-26.2451	-75.0122
194.4	-33.2642	-75.0427
194.5	-36.6211	-75.1648
194.6	-31.4331	-75.0427
194.7	-31.7383	-75.1343
194.8	-36.3159	-75.0427
194.9	-36.0107	-75.0122
195	-37.8418	-75.1038
195.1	-43.335	-75.1953
195.2	-39.6729	-75.0427
195.3	-34.4849	-75.0427
195.4	-41.8091	-75.0732
195.5	-48.2178	-75.1953
195.6	-41.8091	-75.0427
195.7	-32.6538	-75.0732
195.8	-34.4849	-75.0122
195.9	-34.4849	-75.1343
196	-31.7383	-75.1038
196.1	-30.2124	-75.0427
196.2	-28.9917	-75.0427
196.3	-28.6865	-75.1038
196.4	-29.2969	-75.1038
196.5	-29.2969	-75.0732
196.6	-31.1279	-75.0427
196.7	-33.8745	-75.0427
196.8	-36.0107	-75.1343
196.9	-35.4004	-75.0427
197	-36.0107	-75.0732
197.1	-32.3486	-75.1343
197.2	-28.6865	-75.0732
197.3	-27.771	-75.1648
197.4	-26.8555	-75.1648
197.5	-29.6021	-75.0427
197.6	-29.6021	-75.1038
197.7	-25.9399	-75.1343
197.8	-23.8037	-75.1648
197.9	-25.0244	-75.1953
198	-27.771	-75.1953
198.1	-29.6021	-75.0732
198.2	-28.0762	-75.0732
198.3	-28.3813	-75.0427
198.4	-28.6865	-75.0732
198.5	-28.3813	-75.1038
198.6	-30.5176	-75.1343
198.7	-32.0435	-75.1648
198.8	-34.4849	-75.1343
198.9	-30.2124	-75.0732
199	-27.771	-74.9817
199.1	-28.9917	-75.0122
199.2	-28.6865	-75.1038
199.3	-29.9072	-75.1953
199.4	-35.7056	-75.1038
199.5	-35.4004	-75.0122
199.6	-31.7383	-75.0427
199.7	-33.8745	-75.0732
199.8	-34.79	-75.0732
199.9	-36.0107	-75.0732
200	-34.4849	-75.1648
200.1	-34.79	-80.1086
200.2	-38.4521	-80.1392
200.3	-40.8936	-80.0476
200.4	-39.6729	-80.0171
200.5	-33.5693	-80.1086
200.6	-33.8745	-80.1392
200.7	-34.79	-80.2307
200.8	-32.959	-80.1086
200.9	-34.1797	-80.0171
201	-38.147	-80.0476
201.1	-37.8418	-80.1697
201.2	-35.0952	-80.1392
201.3	-32.3486	-80.0171
201.4	-28.9917	-80.1086
201.5	-31.7383	-80.1697
201.6	-33.2642	-80.0781
201.7	-34.1797	-80.0476
201.8	-33.5693	-80.0476
201.9	-25.6348	-80.1697
202	-24.4141	-80.0781
202.1	-27.771	-80.0476
202.2	-29.9072	-80.1086
202.3	-28.9917	-80.1697
202.4	-28.0762	-80.1392
202.5	-31.4331	-80.0171
202.6	-33.8745	-80.1086
202.7	-28.0762	-80.1086
202.8	-22.583	-80.1392
202.9	-23.8037	-80.1392
203	-22.8882	-80.1086
203.1	-21.6675	-80.0476
203.2	-21.0571	-80.0171
203.3	-26.5503	-80.1392
203.4	-27.771	-80.1697
203.5	-20.752	-80.1086
203.6	-20.752	-80.0476
203.7	-23.8037	-79.9866
203.8	-20.752	-80.0781
203.9	-21.9727	-80.2002
204	-24.7192	-80.2307
204.1	-26.5503	-80.1392
204.2	-30.5176	-80.0781
204.3	-26.5503	-80.0171
204.4	-22.8882	-80.0476
204.5	-25.3296	-80.1086
204.6	-28.6865	-80.2002
204.7	-27.771	-80.0476
204.8	-31.1279	-79.9866
204.9	-28.3813	-80.1697
205	-27.1606	-80.1086
205.1	-29.6021	-80.0781
205.2	-29.6021	-80.1392
205.3	-27.4658	-80.0476
205.4	-24.4141	-80.1392
205.5	-25.3296	-80.0476
205.6	-25.6348	-80.0781
205.7	-27.1606	-80.1086
205.8	-30.2124	-80.0476
205.9	-25.0244	-80.2307
206	-24.4141	-80.0781
206.1	-31.7383	-80.1086
206.2	-36.0107	-80.1392
206.3	-34.1797	-80.0171
206.4	-28.6865	-80.1086
206.5	-23.1934	-80.1697
206.6	-26.2451	-80.0171
206.7	-29.9072	-80.1086
206.8	-33.8745	-80.1086
206.9	-32.0435	-80.1086
207	-27.771	-80.1392
207.1	-23.4985	-80.0171
207.2	-28.0762	-80.0781
207.3	-29.6021	-80.2002
207.4	-29.9072	-80.1086
207.5	-28.9917	-80.1392
207.6	-25.3296	-79.9866
207.7	-23.4985	-80.0476
207.8	-25.3296	-80.2002
207.9	-29.2969	-80.1392
208	-34.4849	-79.9866
208.1	-34.1797	-80.0171
208.2	-31.1279	-80.2002
208.3	-29.9072	-80.0476
208.4	-27.771	-80.0781
208.5	-26.5503	-80.1392
208.6	-25.0244	-80.1086
208.7	-22.8882	-80.1086
208.8	-27.4658	-80.0476
208.9	-35.0952	-79.9866
209	-37.5366	-80.1392
209.1	-35.0952	-80.1392
209.2	-34.1797	-80.0781
209.3	-32.0435	-80.0781
209.4	-31.7383	-80.1697
209.5	-32.0435	-80.0781
209.6	-31.4331	-80.0781
