ATF	1.0
7	3     
"AcquisitionMode=Gap Free"
"Comment="
"YTop=10000,1000"
"YBottom=-10000,-1000"
"SweepStartTimesMS=0.000"
"SignalsExported=Im_Scaled,10_mv"
"Signals="	"Im_Scaled"	"10_mv"
"Time (s)"	"Trace #1 (pA)"	"Trace #1 (mV)"
0	569.153	19.6228
0.1	571.289	19.7449
0.2	576.782	19.6838
0.3	578.003	19.7144
0.4	582.581	19.7144
0.5	580.444	19.7449
0.6	578.613	19.7449
0.7	578.613	19.7449
0.8	579.224	19.7754
0.9	578.003	19.7144
1	574.036	19.7754
1.1	576.782	19.7144
1.2	585.022	19.7754
1.3	587.158	19.7449
1.4	588.379	19.7754
1.5	590.82	19.7754
1.6	597.534	19.7449
1.7	594.177	19.7449
1.8	579.224	19.5923
1.9	574.951	19.6838
2	579.224	19.6533
2.1	575.867	19.6838
2.2	577.393	19.6533
2.3	580.75	19.6838
2.4	588.379	19.7449
2.5	590.515	19.7449
2.6	587.769	19.7754
2.7	587.158	19.7449
2.8	584.717	19.7449
2.9	583.191	19.7449
3	590.21	19.7754
3.1	593.872	19.7449
3.2	595.398	19.7754
3.3	593.262	19.8059
3.4	581.97	19.7449
3.5	579.834	19.7754
3.6	580.75	19.6838
3.7	581.36	19.6533
3.8	584.106	19.5923
3.9	584.106	19.6228
4	579.529	19.6228
4.1	575.867	19.6228
4.2	580.139	19.6228
4.3	584.717	19.5923
4.4	587.463	19.6228
4.5	577.393	19.6228
4.6	575.867	19.6228
4.7	581.36	19.6228
4.8	587.769	19.7144
4.9	589.905	19.6533
5	584.412	19.6228
5.1	577.087	19.6533
5.2	576.172	19.6228
5.3	574.646	19.6533
5.4	576.172	19.6838
5.5	575.562	19.8059
5.6	576.782	19.7449
5.7	577.698	19.8059
5.8	580.75	19.8059
5.9	584.106	19.7754
6	584.717	19.7449
6.1	588.989	19.7449
6.2	586.853	19.8364
6.3	584.412	19.7144
6.4	587.769	19.8059
6.5	590.21	19.8059
6.6	589.905	19.7144
6.7	583.496	19.7144
6.8	581.97	19.5923
6.9	578.308	19.6838
7	575.562	19.6838
7.1	580.444	19.6533
7.2	586.243	19.6533
7.3	594.788	19.6533
7.4	592.957	19.7754
7.5	593.262	19.7449
7.6	587.158	19.7754
7.7	591.736	19.7754
7.8	599.06	19.6838
7.9	596.008	19.6838
8	596.924	19.6838
8.1	595.703	19.6228
8.2	596.924	19.6533
8.3	591.736	19.6838
8.4	592.957	19.7144
8.5	597.839	19.6228
8.6	593.872	19.5923
8.7	595.703	19.6838
8.8	597.534	19.6838
8.9	596.619	19.7449
9	598.145	19.8059
9.1	600.281	19.7144
9.2	601.807	19.6838
9.3	601.196	19.6228
9.4	600.281	19.6228
9.5	595.703	19.6838
9.6	599.06	19.6838
9.7	598.145	19.7449
9.8	595.703	19.7449
9.9	594.788	19.7144
10	599.06	19.6533
10.1	595.703	19.7144
10.2	592.957	14.7705
10.3	566.406	14.74
10.4	484.924	14.5874
10.5	447.998	14.7705
10.6	448.608	14.74
10.7	446.167	14.7705
10.8	440.674	14.7095
10.9	441.284	14.5874
11	446.472	14.74
11.1	445.251	14.7095
11.2	444.641	14.74
11.3	447.083	14.679
11.4	447.083	14.6484
11.5	445.557	14.7095
11.6	440.063	14.679
11.7	435.486	14.7095
11.8	441.895	14.801
11.9	441.284	14.7095
12	439.758	14.6484
12.1	443.42	14.6179
12.2	443.115	14.679
12.3	442.505	14.7705
12.4	444.946	14.74
12.5	445.862	14.7705
12.6	439.148	14.7705
12.7	436.096	14.74
12.8	440.674	14.6179
12.9	443.726	14.6179
13	441.895	14.6484
13.1	441.284	14.7705
13.2	441.895	14.801
13.3	446.777	14.7095
13.4	451.66	14.801
13.5	450.134	14.74
13.6	450.439	14.6484
13.7	445.557	14.6484
13.8	440.063	14.74
13.9	441.589	14.801
14	444.641	14.6484
14.1	442.81	14.5874
14.2	439.453	14.74
14.3	440.979	14.7705
14.4	441.284	14.74
14.5	442.505	14.7095
14.6	449.219	14.6179
14.7	450.134	14.7095
14.8	450.745	14.7705
14.9	449.524	14.7095
15	445.251	14.6484
15.1	444.946	14.6179
15.2	449.219	14.6179
15.3	448.608	14.7705
15.4	447.693	14.7705
15.5	451.66	14.6179
15.6	452.576	14.6179
15.7	454.407	14.679
15.8	458.374	14.7705
15.9	454.712	14.7705
16	450.439	14.6179
16.1	450.134	14.7705
16.2	447.998	14.74
16.3	449.524	14.5874
16.4	453.186	14.7705
16.5	450.745	14.74
16.6	446.777	14.6179
16.7	450.134	14.7705
16.8	450.134	14.6484
16.9	452.881	14.7095
17	455.627	14.7705
17.1	453.491	14.6179
17.2	452.271	14.6179
17.3	448.914	14.801
17.4	453.796	14.7095
17.5	454.712	14.7095
17.6	454.102	14.6179
17.7	453.796	14.74
17.8	456.848	14.801
17.9	457.458	14.6484
18	450.439	14.74
18.1	447.693	14.679
18.2	453.796	14.6179
18.3	455.627	14.7705
18.4	455.322	14.7705
18.5	456.238	14.74
18.6	453.491	14.74
18.7	450.439	14.74
18.8	453.186	14.7095
18.9	453.796	14.7705
19	450.745	14.74
19.1	451.05	14.6484
19.2	453.491	14.6484
19.3	458.374	14.6484
19.4	459.595	14.74
19.5	458.984	14.7705
19.6	456.543	14.7705
19.7	453.491	14.7705
19.8	452.881	14.7095
19.9	451.965	14.679
20	449.524	14.6179
20.1	448.303	14.5569
20.2	457.764	9.67407
20.3	449.524	9.61304
20.4	374.451	9.64355
20.5	310.059	9.70459
20.6	299.683	9.70459
20.7	299.988	9.79614
20.8	300.293	9.73511
20.9	302.429	9.73511
21	301.819	9.70459
21.1	299.683	9.70459
21.2	304.26	9.70459
21.3	308.228	9.70459
21.4	307.617	9.61304
21.5	307.617	9.67407
21.6	306.091	9.67407
21.7	303.04	9.67407
21.8	304.26	9.67407
21.9	305.786	9.67407
22	306.702	9.67407
22.1	309.143	9.70459
22.2	308.533	9.73511
22.3	309.753	9.79614
22.4	309.448	9.76563
22.5	308.533	9.76563
22.6	308.533	9.79614
22.7	310.974	9.73511
22.8	313.416	9.79614
22.9	309.448	9.76563
23	305.176	9.67407
23.1	308.228	9.67407
23.2	308.838	9.61304
23.3	307.007	9.73511
23.4	307.007	9.76563
23.5	307.922	9.76563
23.6	307.922	9.79614
23.7	307.312	9.76563
23.8	307.617	9.73511
23.9	304.26	9.79614
24	303.345	9.73511
24.1	304.26	9.73511
24.2	303.65	9.76563
24.3	301.514	9.73511
24.4	301.208	9.76563
24.5	300.293	9.73511
24.6	300.598	9.64355
24.7	303.04	9.70459
24.8	303.345	9.67407
24.9	305.176	9.67407
25	304.26	9.67407
25.1	300.903	9.64355
25.2	303.345	9.64355
25.3	303.04	9.70459
25.4	304.26	9.70459
25.5	308.228	9.73511
25.6	309.753	9.70459
25.7	310.974	9.73511
25.8	308.838	9.73511
25.9	306.702	9.73511
26	307.312	9.67407
26.1	309.143	9.70459
26.2	308.838	9.73511
26.3	308.838	9.73511
26.4	311.279	9.73511
26.5	310.669	9.76563
26.6	307.312	9.73511
26.7	307.922	9.79614
26.8	308.838	9.82666
26.9	307.312	9.67407
27	309.143	9.70459
27.1	311.279	9.70459
27.2	305.481	9.73511
27.3	306.396	9.76563
27.4	306.702	9.79614
27.5	304.871	9.70459
27.6	301.208	9.73511
27.7	303.65	9.79614
27.8	307.312	9.70459
27.9	307.007	9.79614
28	308.838	9.76563
28.1	309.753	9.552
28.2	309.143	9.67407
28.3	310.059	9.73511
28.4	307.617	9.73511
28.5	306.091	9.79614
28.6	307.922	9.76563
28.7	306.702	9.61304
28.8	304.565	9.64355
28.9	304.871	9.76563
29	304.565	9.70459
29.1	304.26	9.82666
29.2	304.565	9.79614
29.3	307.312	9.73511
29.4	306.396	9.76563
29.5	304.871	9.73511
29.6	307.922	9.67407
29.7	311.279	9.67407
29.8	309.448	9.67407
29.9	309.448	9.76563
30	309.143	9.76563
30.1	308.228	9.64355
30.2	307.617	9.64355
30.3	305.786	4.69971
30.4	285.339	4.69971
30.5	212.402	4.82178
30.6	166.931	4.73022
30.7	162.659	4.66919
30.8	162.964	4.82178
30.9	161.743	4.79126
31	164.795	4.60815
31.1	165.71	4.79126
31.2	163.879	4.82178
31.3	164.795	4.69971
31.4	164.185	4.76074
31.5	165.1	4.66919
31.6	166.321	4.63867
31.7	166.626	4.79126
31.8	164.49	4.85229
31.9	163.879	4.79126
32	161.743	4.79126
32.1	162.354	4.79126
32.2	165.71	4.76074
32.3	164.795	4.73022
32.4	163.879	4.69971
32.5	162.964	4.66919
32.6	162.354	4.82178
32.7	163.269	4.82178
32.8	163.879	4.76074
32.9	161.743	4.73022
33	162.048	4.69971
33.1	166.016	4.63867
33.2	166.321	4.66919
33.3	165.1	4.73022
33.4	164.49	4.69971
33.5	163.269	4.73022
33.6	162.659	4.66919
33.7	164.185	4.66919
33.8	163.269	4.73022
33.9	163.269	4.79126
34	165.71	4.69971
34.1	166.626	4.79126
34.2	163.879	4.73022
34.3	160.522	4.69971
34.4	162.048	4.66919
34.5	164.795	4.69971
34.6	164.49	4.66919
34.7	166.016	4.63867
34.8	164.795	4.69971
34.9	161.743	4.82178
35	161.133	4.79126
35.1	164.795	4.82178
35.2	165.405	4.76074
35.3	164.49	4.66919
35.4	164.49	4.76074
35.5	162.659	4.82178
35.6	162.354	4.76074
35.7	163.269	4.76074
35.8	164.49	4.82178
35.9	164.185	4.76074
36	163.574	4.73022
36.1	165.405	4.73022
36.2	165.1	4.66919
36.3	165.405	4.63867
36.4	166.321	4.69971
36.5	163.574	4.63867
36.6	163.269	4.63867
36.7	164.185	4.60815
36.8	164.795	4.73022
36.9	163.879	4.73022
37	161.743	4.73022
37.1	160.828	4.85229
37.2	159.912	4.79126
37.3	162.659	4.69971
37.4	163.879	4.69971
37.5	162.048	4.69971
37.6	162.964	4.76074
37.7	162.659	4.79126
37.8	163.879	4.85229
37.9	164.795	4.76074
38	164.185	4.69971
38.1	163.879	4.69971
38.2	164.49	4.76074
38.3	162.659	4.76074
38.4	162.354	4.66919
38.5	163.269	4.82178
38.6	163.879	4.76074
38.7	165.71	4.73022
38.8	166.321	4.60815
38.9	163.879	4.79126
39	164.49	4.76074
39.1	165.71	4.66919
39.2	164.49	4.66919
39.3	163.574	4.79126
39.4	162.659	4.73022
39.5	165.405	4.63867
39.6	166.626	4.76074
39.7	165.1	4.79126
39.8	165.71	4.63867
39.9	164.795	4.73022
40	163.574	4.82178
40.1	164.49	4.76074
40.2	165.405	-0.305176
40.3	149.841	-0.274658
40.4	79.9561	-0.213623
40.5	34.79	-0.244141
40.6	31.7383	-0.335693
40.7	32.0435	-0.335693
40.8	31.7383	-0.244141
40.9	32.3486	-0.183105
41	31.7383	-0.213623
41.1	31.7383	-0.305176
41.2	32.3486	-0.305176
41.3	32.6538	-0.213623
41.4	31.7383	-0.274658
41.5	31.7383	-0.335693
41.6	32.0435	-0.213623
41.7	31.4331	-0.213623
41.8	31.4331	-0.213623
41.9	31.1279	-0.335693
42	31.1279	-0.366211
42.1	32.0435	-0.183105
42.2	32.0435	-0.183105
42.3	31.7383	-0.274658
42.4	31.7383	-0.244141
42.5	32.3486	-0.244141
42.6	32.3486	-0.366211
42.7	32.6538	-0.335693
42.8	32.0435	-0.305176
42.9	31.4331	-0.366211
43	31.4331	-0.244141
43.1	31.7383	-0.213623
43.2	31.7383	-0.244141
43.3	32.3486	-0.244141
43.4	31.7383	-0.213623
43.5	31.7383	-0.274658
43.6	31.1279	-0.183105
43.7	31.4331	-0.213623
43.8	31.7383	-0.244141
43.9	31.7383	-0.213623
44	31.7383	-0.183105
44.1	32.0435	-0.183105
44.2	32.0435	-0.244141
44.3	31.7383	-0.213623
44.4	31.7383	-0.274658
44.5	32.3486	-0.366211
44.6	32.0435	-0.274658
44.7	31.7383	-0.183105
44.8	32.0435	-0.244141
44.9	31.7383	-0.244141
45	31.4331	-0.335693
45.1	31.7383	-0.366211
45.2	32.0435	-0.183105
45.3	31.7383	-0.274658
45.4	31.4331	-0.366211
45.5	31.7383	-0.183105
45.6	31.7383	-0.183105
45.7	31.7383	-0.305176
45.8	31.7383	-0.335693
45.9	31.7383	-0.183105
46	31.7383	-0.274658
46.1	32.0435	-0.274658
46.2	31.7383	-0.335693
46.3	31.7383	-0.366211
46.4	32.0435	-0.244141
46.5	31.7383	-0.213623
46.6	31.1279	-0.244141
46.7	31.7383	-0.213623
46.8	31.7383	-0.305176
46.9	31.4331	-0.305176
47	31.7383	-0.244141
47.1	32.0435	-0.213623
47.2	32.0435	-0.244141
47.3	31.7383	-0.213623
47.4	32.0435	-0.335693
47.5	32.0435	-0.335693
47.6	32.3486	-0.183105
47.7	32.0435	-0.274658
47.8	32.3486	-0.305176
47.9	32.0435	-0.335693
48	31.7383	-0.213623
48.1	31.7383	-0.213623
48.2	31.7383	-0.244141
48.3	31.7383	-0.366211
48.4	31.7383	-0.366211
48.5	32.0435	-0.244141
48.6	32.0435	-0.213623
48.7	31.7383	-0.244141
48.8	31.4331	-0.274658
48.9	31.4331	-0.305176
49	31.7383	-0.183105
49.1	32.0435	-0.274658
49.2	31.7383	-0.274658
49.3	31.4331	-0.213623
49.4	32.3486	-0.335693
49.5	31.7383	-0.183105
49.6	31.7383	-0.213623
49.7	31.7383	-0.335693
49.8	31.4331	-0.244141
49.9	31.7383	-0.274658
50	31.4331	-0.305176
50.1	31.7383	-0.305176
50.2	32.0435	-0.213623
50.3	32.0435	-5.18799
50.4	27.1606	-5.21851
50.5	-20.752	-5.24902
50.6	-75.0732	-5.24902
50.7	-83.9233	-5.34058
50.8	-83.0078	-5.31006
50.9	-84.5337	-5.21851
51	-86.3647	-5.21851
51.1	-86.3647	-5.18799
51.2	-85.144	-5.15747
51.3	-84.8389	-5.18799
51.4	-84.5337	-5.34058
51.5	-84.5337	-5.24902
51.6	-83.6182	-5.27954
51.7	-83.9233	-5.18799
51.8	-83.6182	-5.15747
51.9	-83.313	-5.18799
52	-84.5337	-5.18799
52.1	-85.7544	-5.21851
52.2	-85.144	-5.24902
52.3	-85.144	-5.31006
52.4	-86.0596	-5.34058
52.5	-85.4492	-5.24902
52.6	-84.8389	-5.18799
52.7	-84.8389	-5.18799
52.8	-83.313	-5.24902
52.9	-83.313	-5.24902
53	-85.4492	-5.21851
53.1	-85.7544	-5.24902
53.2	-85.144	-5.24902
53.3	-85.144	-5.21851
53.4	-84.8389	-5.24902
53.5	-83.6182	-5.31006
53.6	-84.2285	-5.21851
53.7	-85.144	-5.18799
53.8	-84.8389	-5.27954
53.9	-85.7544	-5.27954
54	-85.144	-5.18799
54.1	-84.5337	-5.18799
54.2	-85.4492	-5.21851
54.3	-85.144	-5.21851
54.4	-85.144	-5.18799
54.5	-85.144	-5.21851
54.6	-85.7544	-5.27954
54.7	-85.144	-5.24902
54.8	-83.9233	-5.24902
54.9	-83.313	-5.31006
55	-83.313	-5.31006
55.1	-82.7026	-5.31006
55.2	-83.313	-5.18799
55.3	-82.0923	-5.15747
55.4	-82.0923	-5.15747
55.5	-83.9233	-5.21851
55.6	-83.9233	-5.27954
55.7	-83.313	-5.31006
55.8	-83.6182	-5.18799
55.9	-83.0078	-5.12695
56	-83.6182	-5.24902
56.1	-84.5337	-5.24902
56.2	-85.7544	-5.27954
56.3	-84.5337	-5.31006
56.4	-85.144	-5.34058
56.5	-86.0596	-5.31006
56.6	-85.144	-5.31006
56.7	-84.5337	-5.27954
56.8	-84.5337	-5.18799
56.9	-84.8389	-5.24902
57	-84.8389	-5.21851
57.1	-84.2285	-5.18799
57.2	-84.2285	-5.21851
57.3	-84.2285	-5.15747
57.4	-83.313	-5.15747
57.5	-82.7026	-5.21851
57.6	-82.3975	-5.18799
57.7	-82.3975	-5.27954
57.8	-83.6182	-5.31006
57.9	-83.6182	-5.27954
58	-83.9233	-5.34058
58.1	-84.8389	-5.34058
58.2	-84.5337	-5.27954
58.3	-84.2285	-5.34058
58.4	-84.5337	-5.31006
58.5	-86.0596	-5.24902
58.6	-85.4492	-5.27954
58.7	-84.5337	-5.24902
58.8	-83.9233	-5.21851
58.9	-84.2285	-5.27954
59	-83.9233	-5.18799
59.1	-83.9233	-5.27954
59.2	-83.9233	-5.27954
59.3	-84.5337	-5.27954
59.4	-85.144	-5.31006
59.5	-85.7544	-5.27954
59.6	-83.313	-5.21851
59.7	-83.0078	-5.18799
59.8	-84.5337	-5.18799
59.9	-85.7544	-5.12695
60	-86.3647	-5.24902
60.1	-85.144	-5.21851
60.2	-83.0078	-10.2234
60.3	-86.6699	-10.3455
60.4	-126.343	-10.2234
60.5	-177.307	-10.1624
60.6	-189.209	-10.1624
60.7	-184.631	-10.1318
60.8	-183.716	-10.1318
60.9	-184.021	-10.2234
61	-184.021	-10.1624
61.1	-183.716	-10.2234
61.2	-183.411	-10.3149
61.3	-182.8	-10.1318
61.4	-183.716	-10.1624
61.5	-182.8	-10.2234
61.6	-184.937	-10.1624
61.7	-184.631	-10.2539
61.8	-182.19	-10.2844
61.9	-182.8	-10.2539
62	-186.768	-10.2234
62.1	-187.683	-10.2539
62.2	-184.631	-10.1929
62.3	-183.716	-10.1929
62.4	-185.242	-10.1929
62.5	-186.157	-10.1929
62.6	-184.021	-10.2234
62.7	-181.58	-10.3149
62.8	-184.326	-10.1929
62.9	-186.157	-10.1929
63	-187.988	-10.2234
63.1	-186.462	-10.1929
63.2	-182.495	-10.1624
63.3	-182.19	-10.1929
63.4	-181.885	-10.1929
63.5	-181.885	-10.2844
63.6	-181.58	-10.3455
63.7	-179.749	-10.2234
63.8	-181.274	-10.1318
63.9	-180.664	-10.1624
64	-183.105	-10.1013
64.1	-184.937	-10.1318
64.2	-183.411	-10.2234
64.3	-181.885	-10.3149
64.4	-181.885	-10.2234
64.5	-185.852	-10.1624
64.6	-187.988	-10.1929
64.7	-186.157	-10.2844
64.8	-181.274	-10.1624
64.9	-180.054	-10.1929
65	-180.359	-10.2234
65.1	-177.917	-10.2539
65.2	-177.612	-10.1929
65.3	-177.917	-10.1624
65.4	-178.223	-10.1929
65.5	-180.969	-10.3149
65.6	-183.105	-10.3149
65.7	-180.969	-10.1624
65.8	-180.664	-10.1318
65.9	-179.443	-10.1929
66	-179.138	-10.1929
66.1	-178.528	-10.2539
66.2	-177.917	-10.3149
66.3	-178.223	-10.1624
66.4	-179.443	-10.1013
66.5	-180.359	-10.1624
66.6	-177.612	-10.2234
66.7	-178.833	-10.2844
66.8	-184.326	-10.1624
66.9	-183.716	-10.1929
67	-179.749	-10.1624
67.1	-177.917	-10.2539
67.2	-180.359	-10.3149
67.3	-182.495	-10.2539
67.4	-181.274	-10.1624
67.5	-178.223	-10.1624
67.6	-176.697	-10.1013
67.7	-178.528	-10.1318
67.8	-181.274	-10.1318
67.9	-181.58	-10.1318
68	-183.716	-10.1318
68.1	-182.495	-10.2234
68.2	-181.58	-10.2234
68.3	-180.054	-10.2539
68.4	-177.612	-10.2844
68.5	-176.697	-10.1624
68.6	-177.307	-10.1013
68.7	-179.443	-10.2539
68.8	-180.664	-10.1929
68.9	-181.885	-10.2539
69	-180.664	-10.3455
69.1	-180.359	-10.2234
69.2	-181.885	-10.1318
69.3	-180.969	-10.1624
69.4	-181.885	-10.1624
69.5	-184.021	-10.1624
69.6	-180.969	-10.3149
69.7	-179.749	-10.2539
69.8	-181.885	-10.1013
69.9	-184.021	-10.1624
70	-185.852	-10.2234
70.1	-186.157	-10.1624
70.2	-186.157	-15.2893
70.3	-193.481	-15.2893
70.4	-234.375	-15.2588
70.5	-262.146	-15.1978
70.6	-267.944	-15.1672
70.7	-268.25	-15.1672
70.8	-266.113	-15.2588
70.9	-268.555	-15.2588
71	-265.198	-15.1062
71.1	-265.503	-15.1062
71.2	-265.503	-15.1672
71.3	-261.536	-15.1062
71.4	-265.808	-15.1062
71.5	-268.25	-15.1367
71.6	-263.672	-15.1062
71.7	-266.113	-15.1367
71.8	-268.555	-15.1978
71.9	-263.367	-15.2283
72	-258.484	-15.2588
72.1	-260.315	-15.2893
72.2	-261.841	-15.1978
72.3	-262.451	-15.1978
72.4	-265.503	-15.1978
72.5	-266.418	-15.0757
72.6	-265.198	-15.1062
72.7	-262.451	-15.1978
72.8	-266.418	-15.1672
72.9	-273.438	-15.2283
73	-268.86	-15.2893
73.1	-260.315	-15.1978
73.2	-260.62	-15.1672
73.3	-260.01	-15.1978
73.4	-257.263	-15.1367
73.5	-260.01	-15.1367
73.6	-261.536	-15.1978
73.7	-260.315	-15.1978
73.8	-256.653	-15.1978
73.9	-257.874	-15.3198
74	-260.925	-15.2283
74.1	-261.841	-15.2588
74.2	-264.587	-15.3198
74.3	-264.282	-15.1367
74.4	-260.62	-15.1367
74.5	-259.094	-15.1978
74.6	-261.841	-15.2588
74.7	-263.367	-15.2588
74.8	-263.367	-15.3503
74.9	-265.198	-15.2588
75	-264.282	-15.2588
75.1	-259.705	-15.3198
75.2	-260.925	-15.2588
75.3	-263.672	-15.2893
75.4	-264.893	-15.3198
75.5	-266.113	-15.2893
75.6	-262.756	-15.1978
75.7	-260.315	-15.2283
75.8	-264.282	-15.2283
75.9	-267.334	-15.2283
76	-266.724	-15.2893
76.1	-268.25	-15.3198
76.2	-267.334	-15.2283
76.3	-265.198	-15.2588
76.4	-266.113	-15.3198
76.5	-265.198	-15.2588
76.6	-263.672	-15.2893
76.7	-262.451	-15.2893
76.8	-262.146	-15.2588
76.9	-264.587	-15.2283
77	-260.62	-15.2283
77.1	-261.23	-15.1062
77.2	-260.62	-15.1367
77.3	-256.653	-15.1978
77.4	-262.451	-15.1367
77.5	-269.775	-15.1978
77.6	-269.47	-15.2283
77.7	-271.301	-15.1978
77.8	-272.217	-15.1367
77.9	-267.639	-15.1978
78	-266.724	-15.1367
78.1	-267.639	-15.1367
78.2	-265.808	-15.1672
78.3	-266.724	-15.1978
78.4	-268.86	-15.2283
78.5	-269.47	-15.2893
78.6	-267.334	-15.2893
78.7	-266.113	-15.2588
78.8	-269.47	-15.1978
78.9	-268.86	-15.1978
79	-272.827	-15.1062
79.1	-272.522	-15.1672
79.2	-267.334	-15.1978
79.3	-261.536	-15.1672
79.4	-262.146	-15.1672
79.5	-265.808	-15.2588
79.6	-261.23	-15.2588
79.7	-263.367	-15.2893
79.8	-268.86	-15.3198
79.9	-266.724	-15.1978
80	-265.198	-15.1672
80.1	-262.451	-15.1672
80.2	-262.756	-15.1367
80.3	-261.536	-15.1367
80.4	-262.756	-20.1721
80.5	-263.062	-20.2026
80.6	-281.067	-20.2942
80.7	-321.96	-20.1721
80.8	-333.557	-20.2026
80.9	-323.181	-20.2637
81	-331.116	-20.1416
81.1	-342.102	-20.1721
81.2	-332.336	-20.2332
81.3	-329.285	-20.2332
81.4	-332.947	-20.2026
81.5	-330.505	-20.2332
81.6	-333.252	-20.1416
81.7	-333.557	-20.2026
81.8	-331.421	-20.2942
81.9	-329.285	-20.1721
82	-332.031	-20.1721
82.1	-334.778	-20.1721
82.2	-331.421	-20.2332
82.3	-329.59	-20.3552
82.4	-327.148	-20.2942
82.5	-322.876	-20.2332
82.6	-326.538	-20.1416
82.7	-324.097	-20.1721
82.8	-325.928	-20.1416
82.9	-333.252	-20.2637
83	-329.895	-20.2332
83.1	-327.454	-20.2332
83.2	-326.538	-20.2637
83.3	-328.674	-20.2637
83.4	-325.012	-20.2637
83.5	-327.148	-20.2942
83.6	-331.116	-20.2332
83.7	-329.59	-20.1111
83.8	-332.031	-20.1721
83.9	-326.843	-20.1721
84	-323.486	-20.2332
84.1	-328.979	-20.2942
84.2	-335.693	-20.2026
84.3	-335.693	-20.1721
84.4	-328.979	-20.2026
84.5	-328.064	-20.1721
84.6	-327.148	-20.1721
84.7	-325.317	-20.2942
84.8	-327.454	-20.2637
84.9	-329.59	-20.2942
85	-328.064	-20.2942
85.1	-325.928	-20.2942
85.2	-326.843	-20.2026
85.3	-327.759	-20.1111
85.4	-329.895	-20.2026
85.5	-334.167	-20.2942
85.6	-329.285	-20.1416
85.7	-328.064	-20.2332
85.8	-334.778	-20.2026
85.9	-332.947	-20.1721
86	-328.979	-20.2637
86.1	-328.979	-20.1416
86.2	-321.655	-20.2637
86.3	-320.129	-20.2637
86.4	-326.538	-20.1416
86.5	-326.843	-20.2332
86.6	-324.707	-20.2637
86.7	-327.454	-20.1721
86.8	-332.336	-20.1721
86.9	-334.167	-20.1721
87	-330.505	-20.3247
87.1	-331.421	-20.1111
87.2	-329.59	-20.2026
87.3	-324.707	-20.2637
87.4	-325.317	-20.1416
87.5	-328.369	-20.3247
87.6	-322.571	-20.1416
87.7	-317.688	-20.2637
87.8	-318.604	-20.2026
87.9	-325.317	-20.2637
88	-329.59	-20.1721
88.1	-321.045	-20.2637
88.2	-312.805	-20.1416
88.3	-314.026	-20.3247
88.4	-317.078	-20.1721
88.5	-317.688	-20.2026
88.6	-321.655	-20.2942
88.7	-325.012	-20.1111
88.8	-329.285	-20.2332
88.9	-328.064	-20.2026
89	-321.655	-20.1416
89.1	-320.435	-20.2942
89.2	-318.909	-20.1416
89.3	-316.772	-20.2942
89.4	-317.078	-20.1416
89.5	-319.214	-20.3247
89.6	-323.486	-20.1111
89.7	-325.317	-20.2026
89.8	-323.181	-20.2942
89.9	-324.097	-20.1721
90	-328.064	-20.1721
90.1	-334.778	-20.2332
90.2	-329.285	-25.2075
90.3	-325.317	-25.1465
90.4	-341.492	-25.238
90.5	-372.009	-25.238
90.6	-379.333	-25.0854
90.7	-373.84	-25.2991
90.8	-369.568	-25.116
90.9	-373.84	-25.2686
91	-371.704	-25.1465
91.1	-372.314	-25.177
91.2	-372.314	-25.3296
91.3	-370.178	-25.116
91.4	-372.925	-25.2991
91.5	-373.535	-25.1465
91.6	-378.723	-25.177
91.7	-376.282	-25.2075
91.8	-365.601	-25.2686
91.9	-370.483	-25.1465
92	-377.502	-25.177
92.1	-381.165	-25.2991
92.2	-390.32	-25.116
92.3	-393.066	-25.2991
92.4	-389.709	-25.1465
92.5	-382.69	-25.2075
92.6	-372.314	-25.2686
92.7	-372.925	-25.1465
92.8	-371.094	-25.2991
92.9	-370.178	-25.1465
93	-377.808	-25.177
93.1	-382.385	-25.2686
93.2	-378.418	-25.177
93.3	-376.892	-25.238
93.4	-380.859	-25.177
93.5	-375.671	-25.177
93.6	-370.178	-25.177
93.7	-368.347	-25.2991
93.8	-371.704	-25.177
93.9	-379.639	-25.2991
94	-377.502	-25.116
94.1	-368.347	-25.238
94.2	-370.483	-25.177
94.3	-374.756	-25.177
94.4	-366.821	-25.2991
94.5	-372.009	-25.1465
94.6	-383.911	-25.238
94.7	-385.742	-25.1465
94.8	-377.502	-25.238
94.9	-375.977	-25.1465
95	-377.502	-25.238
95.1	-381.165	-25.2686
95.2	-381.47	-25.116
95.3	-383.301	-25.3296
95.4	-382.69	-25.1465
95.5	-374.451	-25.177
95.6	-375.977	-25.238
95.7	-384.521	-25.238
95.8	-384.216	-25.177
95.9	-378.113	-25.2991
96	-378.113	-25.0854
96.1	-382.69	-25.2075
96.2	-378.113	-25.177
96.3	-375.366	-25.238
96.4	-375.366	-25.1465
96.5	-380.249	-25.2686
96.6	-380.859	-25.0854
96.7	-387.878	-25.3601
96.8	-388.794	-25.1465
96.9	-392.151	-25.238
97	-394.287	-25.2075
97.1	-383.301	-25.177
97.2	-381.47	-25.2686
97.3	-383.911	-25.2075
97.4	-388.184	-25.2686
97.5	-390.015	-25.1465
97.6	-382.08	-25.2991
97.7	-378.113	-25.116
97.8	-376.892	-25.177
97.9	-375.061	-25.177
98	-374.451	-25.177
98.1	-378.418	-25.2686
98.2	-384.216	-25.2991
98.3	-382.385	-25.116
98.4	-379.028	-25.177
98.5	-378.723	-25.2686
98.6	-383.301	-25.238
98.7	-377.502	-25.1465
98.8	-370.178	-25.177
98.9	-369.873	-25.2686
99	-371.704	-25.2991
99.1	-378.723	-25.116
99.2	-389.404	-25.2686
99.3	-395.813	-25.2075
99.4	-398.865	-25.1465
99.5	-390.015	-25.238
99.6	-382.996	-25.2075
99.7	-379.944	-25.177
99.8	-378.418	-25.2991
99.9	-380.859	-25.177
100	-384.521	-25.1465
100.1	-382.996	-30.2734
100.2	-385.742	-30.1208
100.3	-401.917	-30.2429
100.4	-413.208	-30.2124
100.5	-417.48	-30.1514
100.6	-410.156	-30.1514
100.7	-400.085	-30.2429
100.8	-396.118	-30.0903
100.9	-404.663	-30.2734
101	-413.513	-30.1819
101.1	-411.987	-30.1514
101.2	-408.936	-30.2429
101.3	-405.884	-30.1514
101.4	-403.137	-30.1819
101.5	-401.306	-30.1819
101.6	-404.358	-30.2429
101.7	-410.461	-30.1514
101.8	-411.682	-30.1514
101.9	-409.241	-30.2429
102	-398.56	-30.0903
102.1	-403.137	-30.2734
102.2	-412.903	-30.1819
102.3	-405.273	-30.1514
102.4	-400.696	-30.2429
102.5	-403.442	-30.0903
102.6	-404.358	-30.2429
102.7	-407.715	-30.1208
102.8	-398.254	-30.2429
102.9	-389.404	-30.0598
103	-384.521	-30.2124
103.1	-397.949	-30.1514
103.2	-403.748	-30.1514
103.3	-395.508	-30.2124
103.4	-402.222	-30.0903
103.5	-404.663	-30.2124
103.6	-404.663	-30.1208
103.7	-404.053	-30.2429
103.8	-405.273	-30.0903
103.9	-398.254	-30.2429
104	-391.541	-30.1208
104.1	-391.235	-30.1819
104.2	-390.015	-30.1514
104.3	-385.132	-30.2124
104.4	-381.165	-30.1514
104.5	-381.775	-30.1514
104.6	-388.184	-30.2124
104.7	-396.423	-30.1208
104.8	-396.729	-30.2734
104.9	-395.813	-30.1208
105	-402.527	-30.1514
105.1	-404.663	-30.2124
105.2	-412.903	-30.1514
105.3	-401.611	-30.2124
105.4	-386.047	-30.1514
105.5	-389.404	-30.1208
105.6	-389.099	-30.2124
105.7	-384.521	-30.1819
105.8	-383.301	-30.0903
105.9	-387.268	-30.1514
106	-390.32	-30.2124
106.1	-392.761	-30.1208
106.2	-400.696	-30.2124
106.3	-404.968	-30.2734
106.4	-395.203	-30.1819
106.5	-390.015	-30.0598
106.6	-395.203	-30.2429
106.7	-401.306	-30.1208
106.8	-408.936	-30.1208
106.9	-413.208	-30.2124
107	-397.644	-30.2429
107.1	-388.184	-30.1819
107.2	-387.268	-30.0903
107.3	-397.034	-30.1819
107.4	-401.306	-30.1819
107.5	-398.56	-30.304
107.6	-395.813	-30.1208
107.7	-393.677	-30.1819
107.8	-391.846	-30.2124
107.9	-390.625	-30.1514
108	-388.794	-30.3345
108.1	-389.099	-30.1208
108.2	-389.709	-30.2429
108.3	-399.475	-30.1514
108.4	-404.663	-30.1208
108.5	-397.034	-30.1208
108.6	-391.846	-30.2734
108.7	-382.08	-30.1208
108.8	-385.437	-30.1514
108.9	-389.709	-30.2734
109	-384.216	-30.2124
109.1	-373.23	-30.1819
109.2	-374.451	-30.1208
109.3	-386.963	-30.2429
109.4	-380.554	-30.1208
109.5	-373.535	-30.1208
109.6	-379.639	-30.2124
109.7	-385.742	-30.1208
109.8	-379.028	-30.1514
109.9	-375.061	-30.2124
110	-376.587	-30.1208
110.1	-391.235	-30.1819
110.2	-392.761	-35.1257
110.3	-393.677	-35.1868
110.4	-401.001	-35.0952
110.5	-401.611	-35.0952
110.6	-409.241	-35.2478
110.7	-416.26	-35.1868
110.8	-414.734	-35.1257
110.9	-408.936	-35.2783
111	-419.006	-35.0647
111.1	-428.467	-35.2783
111.2	-419.617	-35.0952
111.3	-403.748	-35.1868
111.4	-394.592	-35.2478
111.5	-396.118	-35.2173
111.6	-408.325	-35.0952
111.7	-402.222	-35.1563
111.8	-403.748	-35.1257
111.9	-405.579	-35.2478
112	-400.696	-35.1563
112.1	-397.034	-35.1257
112.2	-397.339	-35.1563
112.3	-395.508	-35.2478
112.4	-396.118	-35.1868
112.5	-403.137	-35.1257
112.6	-408.325	-35.2173
112.7	-403.442	-35.2478
112.8	-395.203	-35.0952
112.9	-397.644	-35.1868
113	-398.865	-35.1868
113.1	-390.93	-35.1257
113.2	-389.709	-35.1257
113.3	-397.339	-35.2478
113.4	-402.527	-35.1563
113.5	-400.085	-35.0952
113.6	-401.001	-35.1563
113.7	-405.579	-35.2478
113.8	-408.936	-35.0952
113.9	-403.137	-35.2783
114	-389.099	-35.0647
114.1	-379.028	-35.1868
114.2	-380.249	-35.2173
114.3	-388.794	-35.1563
114.4	-387.573	-35.2173
114.5	-389.099	-35.1868
114.6	-389.404	-35.1257
114.7	-388.794	-35.2478
114.8	-395.813	-35.1257
114.9	-395.813	-35.1257
115	-395.203	-35.2478
115.1	-399.17	-35.0952
115.2	-397.339	-35.3088
115.3	-394.897	-35.0952
115.4	-387.573	-35.2783
115.5	-381.775	-35.1257
115.6	-377.808	-35.3394
115.7	-374.146	-35.0952
115.8	-377.808	-35.2783
115.9	-379.639	-35.0647
116	-383.301	-35.1563
116.1	-386.658	-35.2478
116.2	-382.69	-35.1257
116.3	-384.827	-35.1563
116.4	-392.761	-35.2478
116.5	-393.066	-35.2173
116.6	-386.963	-35.0647
116.7	-400.391	-35.1257
116.8	-403.748	-35.2478
116.9	-403.137	-35.2478
117	-408.936	-35.3088
117.1	-400.085	-35.1868
117.2	-382.08	-35.2783
117.3	-385.132	-35.1257
117.4	-392.456	-35.1563
117.5	-379.944	-35.1563
117.6	-370.483	-35.1257
117.7	-379.333	-35.2173
117.8	-384.521	-35.2478
117.9	-385.132	-35.2478
118	-380.249	-35.2173
118.1	-379.028	-35.1868
118.2	-388.794	-35.3088
118.3	-386.353	-35.2478
118.4	-386.658	-35.2478
118.5	-385.132	-35.2173
118.6	-374.451	-35.2783
118.7	-376.892	-35.2478
118.8	-379.333	-35.2478
118.9	-382.69	-35.1868
119	-388.184	-35.0647
119.1	-390.93	-35.2173
119.2	-390.625	-35.2173
119.3	-389.709	-35.0952
119.4	-391.846	-35.2478
119.5	-391.846	-35.0952
119.6	-383.911	-35.1563
119.7	-370.789	-35.2783
119.8	-367.737	-35.1257
119.9	-378.418	-35.1563
120	-374.451	-35.0952
120.1	-371.399	-40.2222
120.2	-385.437	-40.2832
120.3	-398.865	-40.2527
120.4	-394.897	-40.2222
120.5	-377.502	-40.1001
120.6	-371.704	-40.1306
120.7	-376.892	-40.2832
120.8	-376.892	-40.1917
120.9	-373.23	-40.1306
121	-367.432	-40.0696
121.1	-366.516	-40.1917
121.2	-373.535	-40.3137
121.3	-373.84	-40.1001
121.4	-376.282	-40.1611
121.5	-381.165	-40.1001
121.6	-379.333	-40.1306
121.7	-381.165	-40.2527
121.8	-382.385	-40.2527
121.9	-375.671	-40.1306
122	-368.958	-40.1917
122.1	-373.23	-40.1917
122.2	-371.399	-40.1306
122.3	-362.549	-40.1917
122.4	-366.821	-40.2527
122.5	-369.568	-40.1306
122.6	-357.666	-40.1917
122.7	-353.699	-40.2222
122.8	-353.394	-40.2222
122.9	-354.614	-40.1306
123	-356.75	-40.1306
123.1	-355.225	-40.2527
123.2	-356.445	-40.2222
123.3	-348.511	-40.1917
123.4	-353.699	-40.1917
123.5	-360.413	-40.1917
123.6	-356.14	-40.1611
123.7	-347.9	-40.1001
123.8	-344.543	-40.1611
123.9	-350.952	-40.0696
124	-354.919	-40.1306
124.1	-359.497	-40.2527
124.2	-369.263	-40.2527
124.3	-357.971	-40.2527
124.4	-353.394	-40.1001
124.5	-355.53	-40.1001
124.6	-351.257	-40.1001
124.7	-363.159	-40.1001
124.8	-369.263	-40.2527
124.9	-367.737	-40.2222
125	-361.328	-40.2527
125.1	-354.614	-40.2832
125.2	-355.835	-40.2222
125.3	-354.919	-40.2222
125.4	-350.952	-40.0696
125.5	-356.14	-40.1306
125.6	-356.445	-40.1306
125.7	-352.783	-40.1306
125.8	-350.952	-40.1306
125.9	-349.731	-40.1306
126	-344.543	-40.1611
126.1	-344.849	-40.1306
126.2	-342.407	-40.1917
126.3	-335.999	-40.2832
126.4	-340.271	-40.2832
126.5	-346.375	-40.2832
126.6	-353.699	-40.1917
126.7	-353.088	-40.2222
126.8	-348.511	-40.1001
126.9	-341.492	-40.1001
127	-341.187	-40.1917
127.1	-350.952	-40.1917
127.2	-347.29	-40.2832
127.3	-339.05	-40.1306
127.4	-342.102	-40.1611
127.5	-350.952	-40.1306
127.6	-340.576	-40.2832
127.7	-337.219	-40.2222
127.8	-341.492	-40.1001
127.9	-333.862	-40.1306
128	-335.999	-40.2527
128.1	-335.388	-40.2832
128.2	-335.083	-40.1001
128.3	-336.304	-40.1306
128.4	-345.154	-40.1611
128.5	-357.361	-40.1917
128.6	-350.952	-40.2832
128.7	-338.44	-40.1917
128.8	-338.745	-40.2527
128.9	-335.083	-40.1917
129	-328.674	-40.1306
129.1	-333.557	-40.1001
129.2	-329.59	-40.1306
129.3	-320.74	-40.2222
129.4	-320.129	-40.2527
129.5	-324.707	-40.1917
129.6	-335.693	-40.1001
129.7	-332.336	-40.2527
129.8	-325.012	-40.1917
129.9	-334.778	-40.1611
130	-334.167	-40.1001
130.1	-329.59	-45.105
130.2	-344.543	-45.0745
130.3	-347.595	-45.2271
130.4	-346.069	-45.1965
130.5	-344.543	-45.1355
130.6	-344.849	-45.105
130.7	-340.271	-45.105
130.8	-335.083	-45.0745
130.9	-333.862	-45.0745
131	-324.707	-45.105
131.1	-323.792	-45.2271
131.2	-324.097	-45.2576
131.3	-325.623	-45.1355
131.4	-333.252	-45.105
131.5	-338.135	-45.0745
131.6	-325.623	-45.2271
131.7	-326.538	-45.2576
131.8	-332.336	-45.2271
131.9	-340.576	-45.0745
132	-337.83	-45.1355
132.1	-330.2	-45.0745
132.2	-312.805	-45.166
132.3	-300.903	-45.105
132.4	-315.247	-45.166
132.5	-326.538	-45.1965
132.6	-313.416	-45.2271
132.7	-307.312	-45.166
132.8	-312.805	-45.2576
132.9	-312.5	-45.105
133	-306.702	-45.105
133.1	-307.617	-45.0745
133.2	-314.331	-45.0745
133.3	-315.857	-45.2576
133.4	-321.655	-45.1965
133.5	-318.909	-45.166
133.6	-328.674	-45.0439
133.7	-338.135	-45.166
133.8	-329.285	-45.1965
133.9	-321.655	-45.1355
134	-317.688	-45.0745
134.1	-314.331	-45.0439
134.2	-323.181	-45.105
134.3	-330.811	-45.105
134.4	-326.843	-45.105
134.5	-315.247	-45.1355
134.6	-310.974	-45.2271
134.7	-306.702	-45.1965
134.8	-299.683	-45.2271
134.9	-299.377	-45.2576
135	-312.805	-45.166
135.1	-315.552	-45.1355
135.2	-316.467	-45.0745
135.3	-325.623	-45.1965
135.4	-315.552	-45.2271
135.5	-314.026	-45.0745
135.6	-317.383	-45.105
135.7	-322.876	-45.2271
135.8	-326.843	-45.166
135.9	-316.772	-45.105
136	-315.247	-45.166
136.1	-313.721	-45.2576
136.2	-303.04	-45.1965
136.3	-297.546	-45.105
136.4	-294.8	-45.166
136.5	-299.683	-45.2271
136.6	-301.819	-45.0745
136.7	-307.617	-45.1355
136.8	-310.059	-45.2576
136.9	-304.871	-45.105
137	-297.546	-45.1355
137.1	-294.8	-45.0439
137.2	-296.021	-45.166
137.3	-300.903	-45.2576
137.4	-308.228	-45.2271
137.5	-309.448	-45.2576
137.6	-292.969	-45.2576
137.7	-292.358	-45.2271
137.8	-305.176	-45.1355
137.9	-299.377	-45.105
138	-303.955	-45.105
138.1	-303.04	-45.0745
138.2	-293.884	-45.105
138.3	-292.053	-45.105
138.4	-292.053	-45.1965
138.5	-289.307	-45.2576
138.6	-290.833	-45.105
138.7	-296.021	-45.0745
138.8	-299.377	-45.105
138.9	-296.021	-45.0745
139	-291.138	-45.0745
139.1	-288.391	-45.105
139.2	-299.377	-45.105
139.3	-309.753	-45.105
139.4	-301.514	-45.2576
139.5	-296.021	-45.2271
139.6	-294.495	-45.105
139.7	-289.917	-45.105
139.8	-290.833	-45.105
139.9	-289.917	-45.0745
140	-293.884	-45.105
140.1	-292.358	-45.2576
140.2	-297.546	-45.2576
140.3	-307.312	-50.1709
140.4	-317.688	-50.1709
140.5	-317.383	-50.1099
140.6	-307.922	-50.0793
140.7	-297.852	-50.1099
140.8	-299.072	-50.1404
140.9	-296.936	-50.1709
141	-281.982	-50.2014
141.1	-284.424	-50.2625
141.2	-301.819	-50.293
141.3	-307.007	-50.2319
141.4	-296.326	-50.1099
141.5	-286.56	-50.1709
141.6	-282.593	-50.1099
141.7	-281.982	-50.0793
141.8	-287.781	-50.1404
141.9	-289.917	-50.2014
142	-291.138	-50.2014
142.1	-280.151	-50.2625
142.2	-279.541	-50.1709
142.3	-282.593	-50.0793
142.4	-276.489	-50.1099
142.5	-270.081	-50.1099
142.6	-271.912	-50.2014
142.7	-277.405	-50.1404
142.8	-279.541	-50.1404
142.9	-280.457	-50.1404
143	-281.067	-50.2014
143.1	-277.405	-50.1709
143.2	-279.846	-50.1709
143.3	-286.255	-50.2625
143.4	-277.71	-50.2014
143.5	-279.236	-50.1099
143.6	-278.32	-50.0793
143.7	-277.405	-50.1099
143.8	-277.71	-50.2319
143.9	-277.405	-50.2014
144	-267.334	-50.1404
144.1	-272.827	-50.1709
144.2	-289.307	-50.1099
144.3	-288.391	-50.0488
144.4	-272.827	-50.1404
144.5	-271.606	-50.293
144.6	-263.977	-50.1404
144.7	-259.094	-50.0793
144.8	-268.555	-50.1404
144.9	-278.625	-50.2319
145	-275.269	-50.2625
145.1	-274.963	-50.2014
145.2	-275.269	-50.2014
145.3	-263.977	-50.2625
145.4	-257.568	-50.2319
145.5	-269.775	-50.2319
145.6	-275.574	-50.1709
145.7	-260.315	-50.2014
145.8	-256.348	-50.1404
145.9	-255.127	-50.0488
146	-256.653	-50.2014
146.1	-271.606	-50.1099
146.2	-272.522	-50.1404
146.3	-266.113	-50.1404
146.4	-263.367	-50.1404
146.5	-256.653	-50.2625
146.6	-258.484	-50.2319
146.7	-261.23	-50.1099
146.8	-257.568	-50.0793
146.9	-248.413	-50.0793
147	-245.361	-50.1709
147.1	-246.277	-50.2319
147.2	-246.277	-50.1709
147.3	-256.653	-50.0793
147.4	-262.451	-50.1709
147.5	-263.977	-50.2625
147.6	-267.334	-50.2014
147.7	-261.841	-50.1709
147.8	-254.822	-50.1404
147.9	-254.822	-50.1709
148	-261.536	-50.2014
148.1	-262.146	-50.1404
148.2	-253.906	-50.1404
148.3	-257.263	-50.1099
148.4	-268.25	-50.2014
148.5	-268.25	-50.2625
148.6	-263.367	-50.2014
148.7	-262.756	-50.0793
148.8	-259.399	-50.1099
148.9	-266.418	-50.2319
149	-268.555	-50.2319
149.1	-256.653	-50.2319
149.2	-254.211	-50.1709
149.3	-254.211	-50.0793
149.4	-258.789	-50.0793
149.5	-257.874	-50.0793
149.6	-256.958	-50.2014
149.7	-260.01	-50.2319
149.8	-261.841	-50.0793
149.9	-258.789	-50.1709
150	-248.108	-50.2014
150.1	-250.854	-55.0842
150.2	-260.62	-55.1453
150.3	-268.555	-55.2673
150.4	-269.165	-55.1453
150.5	-262.756	-55.0537
150.6	-246.277	-55.0842
150.7	-241.089	-55.1758
150.8	-246.582	-55.2368
150.9	-246.887	-55.1453
151	-241.089	-55.1147
151.1	-246.277	-55.2063
151.2	-239.868	-55.1758
151.3	-238.647	-55.0842
151.4	-237.732	-55.1453
151.5	-226.44	-55.0842
151.6	-223.999	-55.2063
151.7	-230.408	-55.1758
151.8	-227.966	-55.1147
151.9	-235.291	-55.1453
152	-246.887	-55.2673
152.1	-243.835	-55.1758
152.2	-234.68	-55.0842
152.3	-230.103	-55.0537
152.4	-235.596	-55.1453
152.5	-233.459	-55.0842
152.6	-228.882	-55.0842
152.7	-220.337	-55.1453
152.8	-211.487	-55.1453
152.9	-208.13	-55.1758
153	-210.266	-55.2673
153.1	-203.552	-55.1758
153.2	-206.909	-55.0537
153.3	-225.83	-55.1147
153.4	-226.746	-55.1147
153.5	-220.337	-55.0842
153.6	-217.896	-55.2368
153.7	-222.168	-55.2368
153.8	-229.797	-55.0842
153.9	-231.934	-55.1758
154	-222.168	-55.1147
154.1	-213.623	-55.0537
154.2	-218.506	-55.2673
154.3	-219.727	-55.0842
154.4	-220.947	-55.1453
154.5	-223.999	-55.2673
154.6	-211.182	-55.0842
154.7	-203.857	-55.0842
154.8	-214.539	-55.2063
154.9	-218.201	-55.2368
155	-214.844	-55.1453
155.1	-217.896	-55.0537
155.2	-217.285	-55.1453
155.3	-206.909	-55.2063
155.4	-207.825	-55.2063
155.5	-206.604	-55.0537
155.6	-200.5	-55.2368
155.7	-203.552	-55.1453
155.8	-202.637	-55.1453
155.9	-197.754	-55.1758
156	-210.876	-55.2063
156.1	-214.844	-55.1147
156.2	-208.435	-55.0842
156.3	-208.13	-55.1758
156.4	-203.552	-55.2063
156.5	-200.5	-55.0537
156.6	-204.468	-55.1758
156.7	-207.52	-55.2063
156.8	-200.5	-55.0842
156.9	-198.059	-55.1147
157	-204.468	-55.1147
157.1	-212.402	-55.1453
157.2	-203.552	-55.2673
157.3	-198.669	-55.1758
157.4	-198.059	-55.0537
157.5	-199.28	-55.1758
157.6	-197.449	-55.2063
157.7	-202.637	-55.1758
157.8	-212.708	-55.0842
157.9	-209.351	-55.0842
158	-206.909	-55.2368
158.1	-207.214	-55.2368
158.2	-204.163	-55.1147
158.3	-211.182	-55.1147
158.4	-216.064	-55.2368
158.5	-213.318	-55.2063
158.6	-206.909	-55.0842
158.7	-196.838	-55.0537
158.8	-195.618	-55.1758
158.9	-195.007	-55.2368
159	-192.261	-55.1758
159.1	-192.261	-55.0842
159.2	-194.397	-55.1147
159.3	-201.111	-55.2063
159.4	-208.435	-55.0842
159.5	-205.383	-55.2063
159.6	-201.416	-55.2368
159.7	-201.416	-55.0537
159.8	-199.28	-55.1147
159.9	-203.857	-55.2368
160	-200.806	-55.2063
160.1	-191.345	-55.1758
160.2	-186.768	-60.1196
160.3	-181.58	-60.0891
160.4	-188.599	-60.1807
160.5	-199.89	-60.2417
160.6	-199.28	-60.1196
160.7	-198.364	-60.1196
160.8	-195.618	-60.2112
160.9	-183.716	-60.1501
161	-182.19	-60.1807
161.1	-191.04	-60.1196
161.2	-187.378	-60.2112
161.3	-185.547	-60.0891
161.4	-187.073	-60.2417
161.5	-183.716	-60.0586
161.6	-176.697	-60.1196
161.7	-172.119	-60.1196
161.8	-173.035	-60.1807
161.9	-178.833	-60.0891
162	-177.307	-60.1807
162.1	-173.645	-60.1196
162.2	-167.542	-60.1807
162.3	-170.898	-60.0891
162.4	-178.223	-60.1501
162.5	-176.697	-60.1807
162.6	-175.476	-60.1196
162.7	-169.983	-60.2112
162.8	-171.814	-60.0891
162.9	-171.814	-60.2417
163	-166.016	-60.0891
163.1	-158.691	-60.1807
163.2	-162.659	-60.2112
163.3	-172.424	-60.0586
163.4	-169.067	-60.2417
163.5	-158.997	-60.1807
163.6	-158.081	-60.0586
163.7	-155.334	-60.2112
163.8	-154.114	-60.1196
163.9	-157.166	-60.1196
164	-157.776	-60.2722
164.1	-156.86	-60.0586
164.2	-151.367	-60.1196
164.3	-153.503	-60.2112
164.4	-158.691	-60.1196
164.5	-152.283	-60.2417
164.6	-146.79	-60.1501
164.7	-147.705	-60.1196
164.8	-157.166	-60.2112
164.9	-157.166	-60.0891
165	-157.471	-60.1196
165.1	-156.86	-60.2417
165.2	-148.926	-60.0586
165.3	-152.283	-60.2417
165.4	-156.86	-60.1196
165.5	-155.029	-60.1807
165.6	-146.79	-60.0891
165.7	-144.348	-60.1807
165.8	-146.79	-60.0891
165.9	-144.348	-60.0891
166	-143.738	-60.2417
166.1	-145.569	-60.1807
166.2	-140.381	-60.0891
166.3	-138.245	-60.1196
166.4	-141.907	-60.2722
166.5	-145.874	-60.1196
166.6	-146.484	-60.0586
166.7	-140.686	-60.2112
166.8	-135.803	-60.1501
166.9	-137.939	-60.0891
167	-135.498	-60.1501
167.1	-137.024	-60.2112
167.2	-147.705	-60.1807
167.3	-146.484	-60.1196
167.4	-143.738	-60.1501
167.5	-138.55	-60.1807
167.6	-139.16	-60.0891
167.7	-142.517	-60.1807
167.8	-149.231	-60.1501
167.9	-158.997	-60.1196
168	-147.705	-60.1501
168.1	-135.193	-60.1196
168.2	-136.719	-60.1807
168.3	-141.907	-60.0586
168.4	-140.076	-60.2112
168.5	-133.667	-60.1501
168.6	-127.258	-60.2417
168.7	-125.122	-60.1807
168.8	-133.362	-60.0891
168.9	-133.362	-60.1501
169	-135.193	-60.2417
169.1	-131.836	-60.2112
169.2	-129.089	-60.0586
169.3	-129.7	-60.1807
169.4	-134.277	-60.2112
169.5	-134.888	-60.0891
169.6	-135.193	-60.1501
169.7	-134.277	-60.2417
169.8	-136.414	-60.1501
169.9	-137.634	-60.1196
170	-137.329	-60.1196
170.1	-137.634	-65.0635
170.2	-137.939	-65.1855
170.3	-138.245	-65.1855
170.4	-136.414	-65.2161
170.5	-137.024	-65.2161
170.6	-131.226	-65.155
170.7	-126.038	-65.1245
170.8	-122.986	-65.155
170.9	-127.869	-65.0635
171	-129.089	-65.033
171.1	-126.038	-65.033
171.2	-122.375	-65.0635
171.3	-119.324	-65.1245
171.4	-115.051	-65.094
171.5	-113.525	-65.0635
171.6	-116.272	-65.033
171.7	-120.85	-65.0635
171.8	-120.85	-65.155
171.9	-111.084	-65.0635
172	-112	-65.094
172.1	-117.188	-65.094
172.2	-122.07	-65.155
172.3	-119.934	-65.1245
172.4	-117.493	-65.094
172.5	-116.577	-65.094
172.6	-117.493	-65.094
172.7	-111.084	-65.2161
172.8	-104.065	-65.2161
172.9	-104.37	-65.155
173	-104.675	-65.094
173.1	-98.2666	-65.0635
173.2	-98.5718	-65.1245
173.3	-101.624	-65.094
173.4	-103.149	-65.0635
173.5	-106.201	-65.033
173.6	-101.318	-65.0635
173.7	-95.2148	-65.094
173.8	-96.1304	-65.0024
173.9	-96.1304	-65.033
174	-97.6563	-65.0635
174.1	-97.6563	-65.1245
174.2	-88.501	-65.1245
174.3	-86.6699	-65.0635
174.4	-89.4165	-65.0635
174.5	-92.7734	-65.155
174.6	-92.1631	-65.2466
174.7	-91.8579	-65.094
174.8	-89.4165	-65.0635
174.9	-87.5854	-65.155
175	-86.0596	-65.2161
175.1	-84.2285	-65.2466
175.2	-81.1768	-65.2161
175.3	-79.3457	-65.1855
175.4	-81.1768	-65.094
175.5	-81.1768	-65.094
175.6	-77.8198	-65.1245
175.7	-85.144	-65.1855
175.8	-91.5527	-65.1245
175.9	-86.9751	-65.1245
176	-83.9233	-65.1855
176.1	-86.0596	-65.094
176.2	-86.3647	-65.155
176.3	-86.0596	-65.1245
176.4	-84.5337	-65.2466
176.5	-80.8716	-65.1855
176.6	-75.9888	-65.155
176.7	-77.2095	-65.0635
176.8	-75.6836	-65.033
176.9	-74.4629	-65.094
177	-75.9888	-65.0635
177.1	-71.4111	-65.094
177.2	-65.0024	-65.094
177.3	-68.0542	-65.155
177.4	-73.5474	-65.1245
177.5	-77.5146	-65.2161
177.6	-82.3975	-65.155
177.7	-79.0405	-65.1245
177.8	-73.8525	-65.0635
177.9	-72.937	-65.0024
178	-74.7681	-65.0635
178.1	-76.2939	-65.033
178.2	-70.4956	-65.094
178.3	-68.9697	-65.155
178.4	-76.9043	-65.0635
178.5	-78.7354	-65.033
178.6	-78.7354	-65.0635
178.7	-74.1577	-65.094
178.8	-67.1387	-65.094
178.9	-70.4956	-65.0635
179	-71.4111	-65.0635
179.1	-70.4956	-65.0635
179.2	-74.1577	-65.094
179.3	-77.5146	-65.094
179.4	-79.0405	-65.0635
179.5	-83.0078	-65.0024
179.6	-86.6699	-65.033
179.7	-79.9561	-65.1245
179.8	-75.9888	-65.094
179.9	-72.6318	-65.0024
180	-74.4629	-65.033
180.1	-70.8008	-70.0684
180.2	-69.8853	-70.0989
180.3	-79.0405	-70.0378
180.4	-79.9561	-70.0378
180.5	-75.0732	-70.0684
180.6	-72.3267	-70.1294
180.7	-77.8198	-70.1904
180.8	-75.0732	-70.1599
180.9	-68.0542	-70.1904
181	-63.7817	-70.1904
181.1	-65.6128	-70.2515
181.2	-68.6646	-70.1904
181.3	-65.918	-70.0378
181.4	-63.1714	-70.0684
181.5	-64.6973	-70.0684
181.6	-67.1387	-70.1294
181.7	-66.8335	-70.1599
181.8	-69.2749	-70.1904
181.9	-67.749	-70.1904
182	-58.8989	-70.0378
182.1	-55.8472	-70.0684
182.2	-58.2886	-70.0684
182.3	-58.5938	-70.0073
182.4	-57.9834	-70.1294
182.5	-61.3403	-70.1599
182.6	-56.7627	-70.1904
182.7	-53.7109	-70.1599
182.8	-56.7627	-70.0684
182.9	-57.0679	-70.0684
183	-60.73	-70.0378
183.1	-57.0679	-70.0378
183.2	-48.8281	-70.1294
183.3	-44.5557	-70.1904
183.4	-47.9126	-70.2515
183.5	-48.8281	-70.1599
183.6	-44.2505	-70.0073
183.7	-42.7246	-70.0684
183.8	-43.6401	-70.2209
183.9	-43.9453	-70.1904
184	-49.1333	-70.0378
184.1	-51.2695	-70.0378
184.2	-53.7109	-70.0989
184.3	-49.4385	-70.1599
184.4	-47.3022	-70.2209
184.5	-47.3022	-70.2515
184.6	-52.4902	-70.0989
184.7	-49.4385	-70.0073
184.8	-50.354	-70.0684
184.9	-49.7437	-70.0684
185	-50.9644	-70.1904
185.1	-48.5229	-70.2515
185.2	-43.6401	-70.0989
185.3	-44.2505	-70.0684
185.4	-45.7764	-70.1294
185.5	-45.166	-70.1904
185.6	-45.7764	-70.1904
185.7	-49.1333	-70.1599
185.8	-51.5747	-70.1294
185.9	-50.9644	-70.0378
186	-43.335	-70.0989
186.1	-38.4521	-70.1599
186.2	-42.4194	-70.1294
186.3	-46.3867	-70.0989
186.4	-46.6919	-70.1599
186.5	-40.8936	-70.1294
186.6	-38.4521	-70.0378
186.7	-39.0625	-70.1599
186.8	-36.9263	-70.2209
186.9	-38.4521	-70.2209
187	-39.978	-70.0989
187.1	-40.2832	-70.0378
187.2	-43.9453	-70.0378
187.3	-42.7246	-70.1294
187.4	-41.1987	-70.1904
187.5	-42.4194	-70.1904
187.6	-43.6401	-70.0989
187.7	-40.5884	-70.0378
187.8	-38.7573	-70.2209
187.9	-39.6729	-70.2209
188	-39.3677	-70.0989
188.1	-39.6729	-70.0684
188.2	-40.8936	-70.1904
188.3	-39.3677	-70.0989
188.4	-40.5884	-70.0989
188.5	-46.9971	-70.1599
188.6	-43.9453	-70.2209
188.7	-39.978	-70.0378
188.8	-39.0625	-70.0378
188.9	-41.1987	-70.1904
189	-42.1143	-70.2209
189.1	-39.978	-70.1904
189.2	-35.0952	-70.0684
189.3	-34.79	-70.1294
189.4	-39.6729	-70.1599
189.5	-40.2832	-70.0989
189.6	-38.7573	-70.1599
189.7	-39.3677	-70.0989
189.8	-39.6729	-70.0684
189.9	-35.7056	-70.2515
190	-35.0952	-70.0684
190.1	-37.2314	-70.1294
190.2	-36.3159	-70.1904
190.3	-33.8745	-75.0122
190.4	-35.7056	-75.1343
190.5	-37.5366	-75.1953
190.6	-34.79	-75.1038
190.7	-34.1797	-75.0427
190.8	-37.8418	-75.1343
190.9	-38.7573	-75.1648
191	-36.6211	-75.0122
191.1	-38.147	-75.1648
191.2	-36.3159	-75.0122
191.3	-32.0435	-75.1648
191.4	-29.6021	-75.0732
191.5	-29.6021	-75.1038
191.6	-28.0762	-75.1343
191.7	-27.1606	-75.0427
191.8	-31.4331	-75.1038
191.9	-36.6211	-75.1343
192	-36.0107	-75.0732
192.1	-34.4849	-75.1343
192.2	-39.3677	-75.0732
192.3	-43.6401	-75.1343
192.4	-44.8608	-75.0427
192.5	-43.9453	-75.1648
192.6	-39.3677	-75.0732
192.7	-33.5693	-75.1343
192.8	-37.8418	-75.0122
192.9	-41.1987	-75.1343
193	-40.2832	-75.0732
193.1	-40.5884	-75.1648
193.2	-39.0625	-75.0427
193.3	-36.3159	-75.1343
193.4	-34.4849	-75.1038
193.5	-30.8228	-75.1343
193.6	-29.6021	-75.0122
193.7	-31.4331	-75.1648
193.8	-34.4849	-75.1038
193.9	-37.8418	-75.1648
194	-38.7573	-75.0427
194.1	-39.6729	-74.9817
194.2	-39.0625	-75.1953
194.3	-38.147	-75.0427
194.4	-39.6729	-75.0732
194.5	-38.7573	-75.1648
194.6	-35.4004	-75.0732
194.7	-36.6211	-75.0732
194.8	-38.147	-75.1953
194.9	-36.6211	-75.0122
195	-31.7383	-75.1648
195.1	-32.0435	-75.1343
195.2	-39.6729	-75.0122
195.3	-43.0298	-75.0122
195.4	-42.4194	-75.2258
195.5	-35.4004	-75.0427
195.6	-38.147	-75.0122
195.7	-35.0952	-75.1953
195.8	-29.2969	-75.0427
195.9	-32.6538	-74.9817
196	-32.3486	-75.1038
196.1	-34.79	-75.1648
196.2	-37.5366	-75.1953
196.3	-33.5693	-75.0732
196.4	-31.1279	-75.0427
196.5	-32.0435	-75.0427
196.6	-29.9072	-75.1648
196.7	-28.0762	-75.2258
196.8	-32.3486	-75.1038
196.9	-35.7056	-75.0427
197	-30.2124	-75.1038
197.1	-24.1089	-75.0732
197.2	-23.1934	-75.1343
197.3	-22.2778	-75.1953
197.4	-23.8037	-75.1343
197.5	-26.8555	-75.0122
197.6	-28.0762	-75.1038
197.7	-28.6865	-75.1038
197.8	-33.5693	-75.1343
197.9	-35.0952	-75.1038
198	-34.4849	-75.0427
198.1	-37.5366	-75.0732
198.2	-41.5039	-75.1953
198.3	-34.79	-75.1038
198.4	-33.5693	-75.0427
198.5	-34.4849	-75.1038
198.6	-36.9263	-75.1343
198.7	-36.6211	-75.0122
198.8	-34.4849	-75.1648
198.9	-35.0952	-75.1648
199	-32.959	-75.0427
199.1	-33.5693	-75.1038
199.2	-36.9263	-75.1648
199.3	-36.9263	-75.0122
199.4	-35.4004	-75.0732
199.5	-36.6211	-75.1343
199.6	-34.1797	-75.1648
199.7	-34.79	-75.1343
199.8	-38.147	-75.0427
199.9	-39.6729	-75.1343
200	-37.8418	-75.0732
200.1	-36.6211	-75.0427
200.2	-37.8418	-80.1086
200.3	-37.8418	-80.2002
200.4	-39.0625	-80.1086
200.5	-39.3677	-80.0781
200.6	-42.7246	-80.1392
200.7	-41.1987	-80.1392
200.8	-37.2314	-80.0781
200.9	-36.6211	-80.1697
201	-36.3159	-80.1086
201.1	-38.7573	-80.0781
201.2	-36.6211	-80.1086
201.3	-34.4849	-80.1697
201.4	-32.3486	-80.2307
201.5	-29.2969	-80.0781
201.6	-31.7383	-80.0781
201.7	-32.6538	-80.0781
201.8	-35.0952	-79.9866
201.9	-32.959	-80.1392
202	-31.1279	-80.1697
202.1	-30.8228	-80.0171
202.2	-28.9917	-80.0781
202.3	-31.4331	-80.1392
202.4	-37.2314	-80.1086
202.5	-38.147	-80.0476
202.6	-36.6211	-80.0476
202.7	-39.6729	-80.1697
202.8	-36.6211	-80.1697
202.9	-28.3813	-80.0781
203	-26.5503	-80.0171
203.1	-25.3296	-80.0476
203.2	-27.1606	-80.1392
203.3	-27.1606	-80.1392
203.4	-27.4658	-80.0171
203.5	-26.8555	-80.1392
203.6	-29.2969	-80.1392
203.7	-32.6538	-80.0171
203.8	-33.8745	-80.1392
203.9	-37.5366	-80.1392
204	-37.8418	-80.0476
204.1	-32.6538	-80.0476
204.2	-27.4658	-80.1697
204.3	-28.6865	-80.1086
204.4	-30.5176	-80.0171
204.5	-32.959	-80.1697
204.6	-34.79	-80.1086
204.7	-29.9072	-80.0171
204.8	-26.8555	-80.1086
204.9	-31.4331	-80.1697
205	-36.9263	-80.0781
205.1	-41.5039	-80.0476
205.2	-42.1143	-80.0171
205.3	-38.147	-80.0476
205.4	-38.4521	-80.0476
205.5	-37.2314	-80.0781
205.6	-31.1279	-80.1392
205.7	-31.1279	-80.1086
205.8	-37.2314	-80.1697
205.9	-37.5366	-80.2002
206	-35.7056	-80.1392
206.1	-31.7383	-80.1392
206.2	-31.7383	-80.0476
206.3	-31.4331	-80.1697
206.4	-29.9072	-80.2002
206.5	-31.1279	-80.1697
206.6	-30.2124	-80.1697
206.7	-27.4658	-80.0171
206.8	-29.6021	-80.0476
206.9	-32.0435	-80.1086
207	-33.8745	-80.2002
207.1	-36.6211	-80.0171
207.2	-33.2642	-80.1392
207.3	-29.2969	-80.1697
207.4	-28.6865	-79.9866
207.5	-28.6865	-80.1392
207.6	-30.8228	-80.1392
207.7	-32.3486	-80.0476
207.8	-28.9917	-80.0781
207.9	-27.1606	-80.1697
208	-31.4331	-80.1086
208.1	-35.4004	-80.0171
208.2	-36.3159	-80.0781
208.3	-34.79	-80.0781
208.4	-29.2969	-80.1392
208.5	-28.0762	-80.2002
208.6	-36.0107	-80.2002
208.7	-36.3159	-80.2002
208.8	-30.8228	-80.0171
208.9	-27.4658	-80.0171
209	-22.583	-80.0476
209.1	-23.8037	-80.0171
209.2	-25.3296	-80.0781
209.3	-28.0762	-80.0476
209.4	-32.959	-80.0476
209.5	-33.2642	-80.0476
209.6	-31.4331	-80.0171
209.7	-26.5503	-80.0781
