ATF	1.0
7	3     
"AcquisitionMode=Gap Free"
"Comment="
"YTop=10000,1000"
"YBottom=-10000,-1000"
"SweepStartTimesMS=0.000"
"SignalsExported=Im_Scaled,10_mv"
"Signals="	"Im_Scaled"	"10_mv"
"Time (s)"	"Trace #1 (pA)"	"Trace #1 (mV)"
0	2017.82	19.6838
0.1	2013.85	19.7449
0.2	2012.33	19.6228
0.3	2006.53	19.7754
0.4	2001.95	19.6838
0.5	2001.65	19.7449
0.6	1997.68	19.7144
0.7	1992.19	19.7449
0.8	1988.83	19.6533
0.9	1980.29	19.8059
1	1984.25	19.6228
1.1	1989.75	19.8059
1.2	1997.99	19.7754
1.3	1992.8	19.5923
1.4	1979.37	19.7144
1.5	1979.37	19.8059
1.6	1977.84	19.5923
1.7	1975.71	19.8059
1.8	1979.68	19.7754
1.9	1972.05	19.5923
2	1960.45	19.8059
2.1	1956.79	19.6838
2.2	1955.87	19.6838
2.3	1954.96	19.7449
2.4	1955.57	19.6228
2.5	1960.14	19.7449
2.6	1964.42	19.7449
2.7	1964.72	19.7144
2.8	1965.03	19.6838
2.9	1966.25	19.7449
3	1963.5	19.6838
3.1	1959.23	19.7449
3.2	1959.53	19.6533
3.3	1958.01	19.7449
3.4	1962.89	19.6533
3.5	1971.13	19.7754
3.6	1974.79	19.6533
3.7	1964.42	19.8059
3.8	1958.62	19.6533
3.9	1957.4	19.7754
4	1954.96	19.6838
4.1	1954.04	19.7754
4.2	1949.16	19.7144
4.3	1945.8	19.7144
4.4	1943.05	19.7144
4.5	1939.39	19.7144
4.6	1936.04	19.7754
4.7	1939.7	19.5923
4.8	1945.5	19.7754
4.9	1948.55	19.7144
5	1946.41	19.7144
5.1	1953.13	19.7754
5.2	1951.29	19.7449
5.3	1947.33	19.6533
5.4	1942.44	19.8059
5.5	1934.51	19.6838
5.6	1938.78	19.7144
5.7	1939.09	19.7449
5.8	1933.29	19.5923
5.9	1931.46	19.7754
6	1936.04	19.6533
6.1	1945.5	19.7449
6.2	1955.87	19.6838
6.3	1951.9	19.6838
6.4	1936.65	19.7754
6.5	1930.85	19.6228
6.6	1929.63	19.7449
6.7	1916.2	19.6838
6.8	1904.6	19.7449
6.9	1914.67	19.6838
7	1922.91	19.7449
7.1	1915.89	19.7449
7.2	1907.65	19.6228
7.3	1907.65	19.7449
7.4	1918.03	19.7754
7.5	1924.44	19.6533
7.6	1930.24	19.6533
7.7	1933.59	19.7449
7.8	1932.07	19.7754
7.9	1925.66	19.6228
8	1912.54	19.7754
8.1	1894.23	19.5923
8.2	1879.88	19.7754
8.3	1878.36	19.6838
8.4	1883.54	19.7144
8.5	1880.49	19.7144
8.6	1884.46	19.6838
8.7	1895.75	19.8364
8.8	1894.53	19.6228
8.9	1889.65	19.7449
9	1899.72	19.7449
9.1	1905.21	19.6533
9.2	1903.99	19.7754
9.3	1915.28	19.6228
9.4	1916.2	19.7449
9.5	1910.1	19.7449
9.6	1918.33	19.7144
9.7	1930.24	19.7449
9.8	1924.44	19.6228
9.9	1918.33	19.7449
10	1918.95	19.7449
10.1	1918.03	19.6228
10.2	1919.86	14.801
10.3	1897.58	14.5874
10.4	1697.39	14.801
10.5	1512.45	14.679
10.6	1501.77	14.679
10.7	1521.91	14.801
10.8	1534.12	14.679
10.9	1537.48	14.7705
11	1536.25	14.5874
11.1	1543.27	14.7705
11.2	1549.38	14.6484
11.3	1554.26	14.7705
11.4	1561.89	14.6484
11.5	1567.69	14.7095
11.6	1568.91	14.74
11.7	1574.71	14.74
11.8	1576.54	14.7095
11.9	1568.91	14.74
12	1561.89	14.7095
12.1	1566.47	14.7095
12.2	1577.45	14.7705
12.3	1578.06	14.6484
12.4	1576.54	14.7705
12.5	1577.15	14.6179
12.6	1568.6	14.801
12.7	1565.86	14.7095
12.8	1568.6	14.679
12.9	1565.55	14.801
13	1565.25	14.679
13.1	1564.33	14.6484
13.2	1558.53	14.74
13.3	1554.57	14.7095
13.4	1560.06	14.7095
13.5	1563.42	14.7705
13.6	1566.16	14.7095
13.7	1567.08	14.74
13.8	1563.72	14.7095
13.9	1561.58	14.74
14	1559.75	14.74
14.1	1555.79	14.6484
14.2	1545.72	14.74
14.3	1545.1	14.6484
14.4	1549.38	14.74
14.5	1546.02	14.74
14.6	1541.14	14.74
14.7	1538.7	14.74
14.8	1535.03	14.7095
14.9	1536.56	14.6179
15	1538.39	14.801
15.1	1537.17	14.7095
15.2	1541.75	14.679
15.3	1549.38	14.801
15.4	1558.53	14.6179
15.5	1562.19	14.801
15.6	1558.23	14.6179
15.7	1557.92	14.8315
15.8	1562.5	14.6484
15.9	1564.64	14.74
16	1561.58	14.679
16.1	1559.75	14.74
16.2	1563.72	14.679
16.3	1566.47	14.8315
16.4	1572.27	14.6484
16.5	1571.96	14.801
16.6	1565.25	14.7095
16.7	1564.03	14.74
16.8	1571.04	14.7095
16.9	1575.93	14.7705
17	1573.79	14.7705
17.1	1575.62	14.679
17.2	1575.32	14.7095
17.3	1571.35	14.74
17.4	1564.03	14.679
17.5	1568.91	14.801
17.6	1564.94	14.6484
17.7	1557.01	14.7095
17.8	1564.33	14.6179
17.9	1568.91	14.7095
18	1571.66	14.74
18.1	1577.45	14.8315
18.2	1581.73	14.74
18.3	1580.51	14.74
18.4	1578.06	14.6484
18.5	1574.4	14.6484
18.6	1573.79	14.801
18.7	1577.15	14.801
18.8	1574.1	14.74
18.9	1574.71	14.6484
19	1579.9	14.679
19.1	1578.67	14.801
19.2	1571.04	14.5874
19.3	1564.33	14.74
19.4	1565.25	14.801
19.5	1575.01	14.5569
19.6	1582.34	14.7705
19.7	1589.05	14.7095
19.8	1591.19	14.679
19.9	1594.54	14.7705
20	1597.9	14.6179
20.1	1597.29	14.7095
20.2	1590.88	14.801
20.3	1585.39	9.64355
20.4	1523.13	9.76563
20.5	1279.6	9.70459
20.6	1127.62	9.67407
20.7	1127.62	9.79614
20.8	1134.34	9.67407
20.9	1134.34	9.76563
21	1140.75	9.70459
21.1	1146.55	9.73511
21.2	1148.99	9.76563
21.3	1149.9	9.73511
21.4	1151.43	9.79614
21.5	1150.51	9.64355
21.6	1149.6	9.70459
21.7	1153.56	9.67407
21.8	1158.14	9.76563
21.9	1162.41	9.64355
22	1166.99	9.79614
22.1	1165.16	9.64355
22.2	1156.62	9.73511
22.3	1155.4	9.70459
22.4	1162.11	9.61304
22.5	1161.19	9.79614
22.6	1154.79	9.70459
22.7	1150.21	9.76563
22.8	1150.82	9.79614
22.9	1156.92	9.61304
23	1161.19	9.79614
23.1	1163.94	9.58252
23.2	1167.91	9.76563
23.3	1172.49	9.70459
23.4	1171.88	9.70459
23.5	1170.65	9.67407
23.6	1169.13	9.76563
23.7	1171.26	9.64355
23.8	1172.18	9.79614
23.9	1173.71	9.61304
24	1181.95	9.76563
24.1	1189.27	9.73511
24.2	1190.8	9.70459
24.3	1190.19	9.70459
24.4	1188.66	9.67407
24.5	1187.44	9.76563
24.6	1190.8	9.70459
24.7	1195.07	9.73511
24.8	1195.07	9.79614
24.9	1195.37	9.61304
25	1191.1	9.79614
25.1	1189.88	9.70459
25.2	1186.52	9.73511
25.3	1185.3	9.76563
25.4	1186.52	9.64355
25.5	1185.91	9.76563
25.6	1185	9.82666
25.7	1191.1	9.58252
25.8	1195.37	9.79614
25.9	1193.85	9.76563
26	1193.24	9.61304
26.1	1194.46	9.76563
26.2	1194.76	9.76563
26.3	1194.15	9.67407
26.4	1188.35	9.73511
26.5	1182.86	9.73511
26.6	1185	9.67407
26.7	1188.66	9.61304
26.8	1190.49	9.79614
26.9	1192.02	9.73511
27	1191.41	9.64355
27.1	1191.71	9.79614
27.2	1191.1	9.73511
27.3	1185.91	9.64355
27.4	1184.08	9.79614
27.5	1185.3	9.76563
27.6	1186.83	9.64355
27.7	1188.66	9.67407
27.8	1192.63	9.79614
27.9	1191.1	9.64355
28	1187.44	9.73511
28.1	1186.22	9.82666
28.2	1185.61	9.61304
28.3	1186.52	9.76563
28.4	1191.71	9.70459
28.5	1192.63	9.64355
28.6	1191.1	9.82666
28.7	1192.32	9.64355
28.8	1192.02	9.76563
28.9	1192.63	9.73511
29	1195.37	9.67407
29.1	1196.59	9.79614
29.2	1192.93	9.67407
29.3	1192.93	9.70459
29.4	1194.76	9.79614
29.5	1192.93	9.73511
29.6	1190.19	9.73511
29.7	1190.8	9.76563
29.8	1194.76	9.64355
29.9	1191.41	9.73511
30	1180.42	9.70459
30.1	1176.76	9.64355
30.2	1180.42	4.79126
30.3	1142.88	4.79126
30.4	896.606	4.66919
30.5	688.477	4.79126
30.6	669.861	4.73022
30.7	674.438	4.63867
30.8	673.523	4.85229
30.9	674.744	4.69971
31	675.659	4.73022
31.1	677.49	4.82178
31.2	678.101	4.79126
31.3	679.016	4.76074
31.4	678.711	4.73022
31.5	679.321	4.79126
31.6	679.016	4.73022
31.7	679.321	4.66919
31.8	679.016	4.82178
31.9	679.321	4.76074
32	677.185	4.66919
32.1	675.354	4.69971
32.2	675.659	4.73022
32.3	676.575	4.79126
32.4	678.101	4.79126
32.5	679.321	4.76074
32.6	677.49	4.69971
32.7	678.406	4.63867
32.8	679.932	4.69971
32.9	682.068	4.69971
33	682.678	4.79126
33.1	681.763	4.82178
33.2	681.763	4.82178
33.3	680.847	4.79126
33.4	680.542	4.63867
33.5	679.321	4.69971
33.6	678.711	4.76074
33.7	680.542	4.82178
33.8	679.626	4.73022
33.9	679.932	4.60815
34	680.237	4.76074
34.1	678.101	4.76074
34.2	676.575	4.66919
34.3	678.101	4.69971
34.4	680.237	4.76074
34.5	679.932	4.79126
34.6	680.237	4.60815
34.7	681.458	4.79126
34.8	682.678	4.79126
34.9	682.068	4.66919
35	683.289	4.69971
35.1	683.899	4.76074
35.2	683.289	4.82178
35.3	682.678	4.73022
35.4	681.458	4.69971
35.5	680.542	4.82178
35.6	682.068	4.82178
35.7	683.594	4.69971
35.8	684.814	4.63867
35.9	684.204	4.82178
36	684.204	4.73022
36.1	684.509	4.73022
36.2	685.425	4.82178
36.3	686.34	4.73022
36.4	686.951	4.66919
36.5	687.561	4.76074
36.6	686.035	4.82178
36.7	685.425	4.79126
36.8	684.509	4.63867
36.9	685.425	4.79126
37	687.256	4.76074
37.1	686.646	4.79126
37.2	685.425	4.69971
37.3	686.646	4.69971
37.4	686.951	4.76074
37.5	685.425	4.79126
37.6	685.12	4.79126
37.7	684.814	4.73022
37.8	684.509	4.69971
37.9	685.425	4.79126
38	686.34	4.79126
38.1	688.171	4.69971
38.2	688.782	4.76074
38.3	688.477	4.73022
38.4	689.087	4.60815
38.5	688.477	4.82178
38.6	686.646	4.82178
38.7	687.866	4.69971
38.8	690.002	4.66919
38.9	690.002	4.73022
39	688.782	4.82178
39.1	690.002	4.66919
39.2	690.002	4.76074
39.3	690.002	4.82178
39.4	689.087	4.66919
39.5	686.646	4.76074
39.6	686.951	4.76074
39.7	688.782	4.73022
39.8	690.918	4.73022
39.9	693.054	4.79126
40	693.054	4.69971
40.1	691.833	4.79126
40.2	691.223	-0.335693
40.3	686.951	-0.244141
40.4	546.57	-0.305176
40.5	242.92	-0.274658
40.6	130.005	-0.183105
40.7	133.057	-0.305176
40.8	130.615	-0.244141
40.9	130.31	-0.305176
41	131.226	-0.213623
41.1	131.226	-0.305176
41.2	131.836	-0.183105
41.3	131.531	-0.244141
41.4	131.226	-0.305176
41.5	131.226	-0.183105
41.6	131.836	-0.305176
41.7	132.141	-0.274658
41.8	132.141	-0.274658
41.9	132.446	-0.183105
42	132.141	-0.274658
42.1	131.836	-0.244141
42.2	132.141	-0.274658
42.3	132.141	-0.305176
42.4	132.751	-0.244141
42.5	132.751	-0.274658
42.6	132.446	-0.244141
42.7	132.446	-0.305176
42.8	132.446	-0.213623
42.9	132.141	-0.274658
43	131.531	-0.213623
43.1	132.446	-0.213623
43.2	132.446	-0.305176
43.3	132.141	-0.213623
43.4	132.446	-0.305176
43.5	132.141	-0.183105
43.6	132.446	-0.305176
43.7	132.141	-0.274658
43.8	132.446	-0.213623
43.9	132.751	-0.305176
44	132.141	-0.183105
44.1	132.446	-0.244141
44.2	132.141	-0.274658
44.3	132.446	-0.183105
44.4	132.751	-0.305176
44.5	133.057	-0.274658
44.6	133.057	-0.244141
44.7	132.446	-0.274658
44.8	132.446	-0.213623
44.9	132.446	-0.244141
45	132.751	-0.244141
45.1	132.446	-0.274658
45.2	132.446	-0.274658
45.3	132.751	-0.244141
45.4	133.667	-0.244141
45.5	133.362	-0.274658
45.6	132.446	-0.244141
45.7	133.057	-0.274658
45.8	133.362	-0.305176
45.9	133.057	-0.244141
46	132.751	-0.274658
46.1	132.446	-0.244141
46.2	133.667	-0.244141
46.3	133.667	-0.274658
46.4	133.362	-0.213623
46.5	133.362	-0.305176
46.6	132.751	-0.244141
46.7	132.751	-0.213623
46.8	132.446	-0.244141
46.9	133.057	-0.244141
47	132.751	-0.274658
47.1	133.362	-0.183105
47.2	133.057	-0.366211
47.3	132.751	-0.213623
47.4	133.057	-0.274658
47.5	133.057	-0.305176
47.6	133.057	-0.183105
47.7	133.362	-0.335693
47.8	133.362	-0.213623
47.9	133.057	-0.366211
48	132.751	-0.213623
48.1	132.751	-0.274658
48.2	132.141	-0.244141
48.3	132.141	-0.274658
48.4	131.836	-0.244141
48.5	132.446	-0.305176
48.6	132.141	-0.213623
48.7	132.446	-0.244141
48.8	132.141	-0.305176
48.9	132.446	-0.183105
49	132.446	-0.396729
49.1	131.836	-0.183105
49.2	131.836	-0.335693
49.3	132.446	-0.244141
49.4	132.141	-0.183105
49.5	132.446	-0.244141
49.6	132.751	-0.305176
49.7	132.446	-0.183105
49.8	132.141	-0.335693
49.9	132.751	-0.213623
50	132.446	-0.213623
50.1	132.446	-0.274658
50.2	132.446	-0.183105
50.3	132.141	-5.31006
50.4	83.9233	-5.18799
50.5	-188.904	-5.21851
50.6	-407.715	-5.31006
50.7	-430.298	-5.15747
50.8	-428.467	-5.27954
50.9	-429.688	-5.24902
51	-430.298	-5.12695
51.1	-430.298	-5.18799
51.2	-430.298	-5.24902
51.3	-430.908	-5.31006
51.4	-430.908	-5.18799
51.5	-431.824	-5.18799
51.6	-431.824	-5.34058
51.7	-432.129	-5.18799
51.8	-432.434	-5.24902
51.9	-432.129	-5.15747
52	-432.739	-5.31006
52.1	-433.35	-5.15747
52.2	-432.739	-5.27954
52.3	-431.213	-5.21851
52.4	-430.908	-5.27954
52.5	-432.129	-5.12695
52.6	-433.35	-5.27954
52.7	-432.434	-5.21851
52.8	-433.044	-5.24902
52.9	-433.96	-5.21851
53	-433.96	-5.15747
53.1	-433.35	-5.18799
53.2	-432.434	-5.24902
53.3	-432.129	-5.15747
53.4	-431.213	-5.24902
53.5	-432.129	-5.15747
53.6	-432.434	-5.31006
53.7	-432.129	-5.21851
53.8	-433.35	-5.21851
53.9	-433.35	-5.27954
54	-433.044	-5.18799
54.1	-433.96	-5.31006
54.2	-434.265	-5.18799
54.3	-433.044	-5.31006
54.4	-432.739	-5.12695
54.5	-433.044	-5.34058
54.6	-433.96	-5.15747
54.7	-433.044	-5.24902
54.8	-433.044	-5.18799
54.9	-433.96	-5.18799
55	-433.044	-5.31006
55.1	-433.655	-5.12695
55.2	-435.181	-5.27954
55.3	-435.181	-5.18799
55.4	-433.96	-5.21851
55.5	-433.044	-5.31006
55.6	-433.35	-5.24902
55.7	-434.265	-5.21851
55.8	-433.655	-5.21851
55.9	-433.655	-5.27954
56	-433.96	-5.12695
56.1	-434.57	-5.24902
56.2	-433.655	-5.31006
56.3	-433.96	-5.12695
56.4	-435.181	-5.21851
56.5	-434.875	-5.31006
56.6	-435.486	-5.09644
56.7	-434.265	-5.37109
56.8	-433.96	-5.15747
56.9	-434.265	-5.24902
57	-435.791	-5.21851
57.1	-435.181	-5.15747
57.2	-435.181	-5.21851
57.3	-434.265	-5.27954
57.4	-434.265	-5.12695
57.5	-434.265	-5.34058
57.6	-436.096	-5.12695
57.7	-436.096	-5.27954
57.8	-435.486	-5.18799
57.9	-435.791	-5.18799
58	-435.791	-5.24902
58.1	-435.791	-5.18799
58.2	-435.486	-5.24902
58.3	-434.57	-5.18799
58.4	-434.875	-5.21851
58.5	-436.401	-5.15747
58.6	-437.012	-5.24902
58.7	-436.096	-5.18799
58.8	-437.012	-5.18799
58.9	-437.012	-5.18799
59	-436.401	-5.27954
59.1	-434.875	-5.21851
59.2	-435.791	-5.27954
59.3	-436.401	-5.15747
59.4	-435.181	-5.34058
59.5	-436.096	-5.18799
59.6	-437.317	-5.18799
59.7	-436.707	-5.31006
59.8	-436.096	-5.18799
59.9	-435.181	-5.27954
60	-435.181	-5.18799
60.1	-435.791	-5.27954
60.2	-436.096	-10.1929
60.3	-497.131	-10.1318
60.4	-783.691	-10.2539
60.5	-984.497	-10.1929
60.6	-997.009	-10.1624
60.7	-994.263	-10.2234
60.8	-996.094	-10.1624
60.9	-994.263	-10.2234
61	-994.263	-10.1929
61.1	-995.483	-10.2539
61.2	-999.146	-10.1624
61.3	-1000.67	-10.1929
61.4	-1001.28	-10.2234
61.5	-999.756	-10.1013
61.6	-996.704	-10.2539
61.7	-996.704	-10.2234
61.8	-997.009	-10.1318
61.9	-995.483	-10.1624
62	-997.62	-10.3149
62.1	-999.146	-10.1624
62.2	-997.314	-10.1624
62.3	-993.958	-10.1929
62.4	-994.873	-10.1929
62.5	-997.009	-10.1624
62.6	-996.094	-10.1624
62.7	-993.347	-10.2539
62.8	-989.685	-10.1624
62.9	-988.464	-10.1318
63	-992.432	-10.2539
63.1	-994.263	-10.2234
63.2	-992.737	-10.1624
63.3	-991.211	-10.2234
63.4	-991.516	-10.1929
63.5	-991.516	-10.1318
63.6	-989.99	-10.2539
63.7	-990.295	-10.1929
63.8	-991.821	-10.1318
63.9	-991.821	-10.2234
64	-992.432	-10.2844
64.1	-993.652	-10.1624
64.2	-993.347	-10.1318
64.3	-993.958	-10.1624
64.4	-993.652	-10.1929
64.5	-992.432	-10.2844
64.6	-993.347	-10.1929
64.7	-994.263	-10.1318
64.8	-992.432	-10.2539
64.9	-989.38	-10.1624
65	-989.075	-10.1624
65.1	-992.126	-10.2234
65.2	-996.704	-10.1929
65.3	-997.314	-10.1013
65.4	-997.925	-10.1929
65.5	-998.84	-10.3149
65.6	-998.535	-10.2539
65.7	-1000.67	-10.1624
65.8	-1000.67	-10.1624
65.9	-998.84	-10.2539
66	-999.146	-10.2539
66.1	-1000.06	-10.1624
66.2	-999.756	-10.1624
66.3	-999.146	-10.2844
66.4	-997.925	-10.1624
66.5	-997.314	-10.1624
66.6	-995.483	-10.2539
66.7	-993.347	-10.1318
66.8	-990.906	-10.1624
66.9	-991.516	-10.1624
67	-992.737	-10.1624
67.1	-993.958	-10.2844
67.2	-996.399	-10.2234
67.3	-996.094	-10.1624
67.4	-994.873	-10.2539
67.5	-994.568	-10.1929
67.6	-992.737	-10.1624
67.7	-990.906	-10.1624
67.8	-991.516	-10.1318
67.9	-994.263	-10.1624
68	-994.568	-10.2539
68.1	-995.789	-10.2234
68.2	-999.451	-10.1624
68.3	-1002.5	-10.1318
68.4	-1003.11	-10.1929
68.5	-999.756	-10.2234
68.6	-996.399	-10.1929
68.7	-995.483	-10.3149
68.8	-997.925	-10.2539
68.9	-1001.28	-10.1624
69	-999.451	-10.1929
69.1	-998.535	-10.2234
69.2	-1001.28	-10.1624
69.3	-1003.42	-10.1624
69.4	-1003.42	-10.1624
69.5	-1001.28	-10.1013
69.6	-1001.59	-10.1624
69.7	-1000.37	-10.1929
69.8	-999.146	-10.1929
69.9	-998.23	-10.1929
70	-998.535	-10.2234
70.1	-1001.28	-10.1318
70.2	-1000.06	-15.1978
70.3	-1007.69	-15.1367
70.4	-1176.15	-15.1672
70.5	-1465.45	-15.2893
70.6	-1549.99	-15.2283
70.7	-1550.9	-15.1062
70.8	-1556.4	-15.1672
70.9	-1550.9	-15.2588
71	-1549.68	-15.1978
71.1	-1549.68	-15.1367
71.2	-1549.99	-15.1672
71.3	-1547.24	-15.2283
71.4	-1543.58	-15.1672
71.5	-1546.94	-15.1367
71.6	-1544.8	-15.2283
71.7	-1540.22	-15.1672
71.8	-1542.97	-15.2283
71.9	-1543.88	-15.1978
72	-1541.14	-15.1367
72.1	-1542.66	-15.1978
72.2	-1547.55	-15.2588
72.3	-1549.99	-15.2283
72.4	-1552.73	-15.1367
72.5	-1552.73	-15.1062
72.6	-1549.38	-15.1978
72.7	-1547.55	-15.1978
72.8	-1550.29	-15.1978
72.9	-1551.82	-15.2588
73	-1550.9	-15.2283
73.1	-1556.4	-15.1978
73.2	-1558.53	-15.2283
73.3	-1554.26	-15.1978
73.4	-1552.12	-15.0452
73.5	-1548.46	-15.1672
73.6	-1547.24	-15.2588
73.7	-1547.24	-15.1978
73.8	-1543.58	-15.1367
73.9	-1539.61	-15.1367
74	-1536.87	-15.2283
74.1	-1537.48	-15.3198
74.2	-1539.61	-15.2588
74.3	-1542.36	-15.2588
74.4	-1543.27	-15.1978
74.5	-1541.44	-15.1062
74.6	-1541.44	-15.1367
74.7	-1544.19	-15.1978
74.8	-1547.85	-15.2588
74.9	-1548.46	-15.1062
75	-1546.63	-15.2588
75.1	-1544.49	-15.1672
75.2	-1542.97	-15.1062
75.3	-1543.27	-15.2588
75.4	-1540.83	-15.2283
75.5	-1537.78	-15.1062
75.6	-1538.09	-15.2893
75.7	-1541.14	-15.1672
75.8	-1540.53	-15.1367
75.9	-1539.61	-15.2588
76	-1540.83	-15.1062
76.1	-1542.97	-15.2588
76.2	-1548.46	-15.1978
76.3	-1549.68	-15.1672
76.4	-1546.94	-15.2588
76.5	-1548.46	-15.1367
76.6	-1548.77	-15.2588
76.7	-1549.07	-15.2588
76.8	-1550.9	-15.1367
76.9	-1554.57	-15.2283
77	-1553.96	-15.2283
77.1	-1545.72	-15.1367
77.2	-1540.53	-15.1062
77.3	-1539.31	-15.2893
77.4	-1544.19	-15.1367
77.5	-1548.46	-15.1978
77.6	-1543.27	-15.3198
77.7	-1532.59	-15.1367
77.8	-1531.37	-15.1062
77.9	-1540.83	-15.2283
78	-1549.38	-15.2283
78.1	-1552.73	-15.2283
78.2	-1548.77	-15.2283
78.3	-1541.75	-15.1062
78.4	-1541.14	-15.1978
78.5	-1542.66	-15.2893
78.6	-1542.05	-15.1978
78.7	-1543.88	-15.1367
78.8	-1546.02	-15.2588
78.9	-1544.49	-15.1062
79	-1543.58	-15.1672
79.1	-1548.16	-15.2283
79.2	-1555.18	-15.2588
79.3	-1553.34	-15.1978
79.4	-1546.63	-15.2588
79.5	-1542.97	-15.1367
79.6	-1541.75	-15.1367
79.7	-1543.88	-15.2588
79.8	-1540.22	-15.2283
79.9	-1543.88	-15.1978
80	-1551.82	-15.1367
80.1	-1552.73	-15.2283
80.2	-1551.82	-20.2637
80.3	-1582.34	-20.1416
80.4	-1818.85	-20.1721
80.5	-2066.35	-20.2637
80.6	-2101.75	-20.1416
80.7	-2087.1	-20.2026
80.8	-2081.6	-20.3247
80.9	-2080.08	-20.1111
81	-2079.16	-20.2026
81.1	-2080.99	-20.2637
81.2	-2083.74	-20.1416
81.3	-2085.57	-20.1416
81.4	-2088.01	-20.2942
81.5	-2082.52	-20.1416
81.6	-2081.91	-20.1111
81.7	-2082.82	-20.2942
81.8	-2081.6	-20.1111
81.9	-2083.44	-20.1721
82	-2086.49	-20.3247
82.1	-2089.84	-20.1111
82.2	-2079.77	-20.1416
82.3	-2073.97	-20.3247
82.4	-2081.91	-20.2026
82.5	-2088.62	-20.1111
82.6	-2085.57	-20.2637
82.7	-2084.66	-20.2026
82.8	-2087.4	-20.1416
82.9	-2082.82	-20.2942
83	-2081.3	-20.1721
83.1	-2080.69	-20.2026
83.2	-2082.52	-20.1416
83.3	-2080.08	-20.1416
83.4	-2080.38	-20.2637
83.5	-2081.6	-20.1111
83.6	-2079.77	-20.2332
83.7	-2077.64	-20.2637
83.8	-2077.03	-20.1111
83.9	-2076.11	-20.2026
84	-2081.6	-20.3247
84.1	-2084.05	-20.1416
84.2	-2082.21	-20.1721
84.3	-2086.79	-20.2942
84.4	-2088.01	-20.1416
84.5	-2087.4	-20.2942
84.6	-2091.67	-20.1721
84.7	-2091.06	-20.2332
84.8	-2084.35	-20.1416
84.9	-2083.74	-20.1721
85	-2088.01	-20.2637
85.1	-2091.98	-20.1416
85.2	-2088.62	-20.2026
85.3	-2075.81	-20.1111
85.4	-2071.53	-20.1721
85.5	-2078.55	-20.2332
85.6	-2080.69	-20.1416
85.7	-2077.94	-20.1416
85.8	-2071.53	-20.2332
85.9	-2066.96	-20.1416
86	-2067.87	-20.2637
86.1	-2067.57	-20.2026
86.2	-2070.62	-20.1111
86.3	-2077.64	-20.2332
86.4	-2077.33	-20.2332
86.5	-2073.97	-20.1111
86.6	-2073.06	-20.3247
86.7	-2073.36	-20.1416
86.8	-2069.09	-20.1721
86.9	-2066.04	-20.2026
87	-2068.18	-20.1416
87.1	-2073.06	-20.2026
87.2	-2074.89	-20.1721
87.3	-2080.69	-20.2026
87.4	-2082.82	-20.1721
87.5	-2071.84	-20.2026
87.6	-2068.48	-20.1721
87.7	-2069.09	-20.2332
87.8	-2070.62	-20.1721
87.9	-2071.84	-20.1111
88	-2070.31	-20.2942
88.1	-2072.75	-20.1721
88.2	-2070.01	-20.1416
88.3	-2067.87	-20.3247
88.4	-2069.4	-20.1721
88.5	-2066.04	-20.1111
88.6	-2066.04	-20.2942
88.7	-2070.31	-20.1416
88.8	-2070.62	-20.2637
88.9	-2074.28	-20.1721
89	-2079.16	-20.1721
89.1	-2076.11	-20.2332
89.2	-2062.99	-20.1721
89.3	-2060.85	-20.2637
89.4	-2060.24	-20.1111
89.5	-2056.58	-20.1721
89.6	-2054.14	-20.2332
89.7	-2057.5	-20.2332
89.8	-2064.82	-20.1416
89.9	-2066.04	-20.2026
90	-2066.04	-20.2637
90.1	-2069.09	-20.1416
90.2	-2070.92	-25.238
90.3	-2079.47	-25.2686
90.4	-2247.62	-25.1465
90.5	-2506.41	-25.2686
90.6	-2570.5	-25.177
90.7	-2566.83	-25.238
90.8	-2572.02	-25.177
90.9	-2582.09	-25.2075
91	-2583.31	-25.2075
91.1	-2576.6	-25.116
91.2	-2568.36	-25.2686
91.3	-2567.44	-25.1465
91.4	-2567.14	-25.177
91.5	-2558.59	-25.177
91.6	-2555.85	-25.2075
91.7	-2557.98	-25.116
91.8	-2567.75	-25.2991
91.9	-2577.51	-25.1465
92	-2581.48	-25.177
92.1	-2584.23	-25.2686
92.2	-2580.26	-25.116
92.3	-2568.66	-25.2686
92.4	-2564.7	-25.2075
92.5	-2566.22	-25.238
92.6	-2566.22	-25.2075
92.7	-2573.85	-25.1465
92.8	-2574.16	-25.2686
92.9	-2566.53	-25.1465
93	-2559.81	-25.3296
93.1	-2552.19	-25.1465
93.2	-2552.19	-25.2075
93.3	-2546.39	-25.177
93.4	-2534.18	-25.177
93.5	-2545.47	-25.238
93.6	-2561.95	-25.1465
93.7	-2568.66	-25.238
93.8	-2565.31	-25.116
93.9	-2566.53	-25.2686
94	-2568.05	-25.1465
94.1	-2568.05	-25.238
94.2	-2567.44	-25.116
94.3	-2565.31	-25.2991
94.4	-2564.09	-25.1465
94.5	-2559.2	-25.1465
94.6	-2555.24	-25.2686
94.7	-2556.15	-25.177
94.8	-2555.85	-25.177
94.9	-2553.41	-25.2075
95	-2550.66	-25.177
95.1	-2545.17	-25.238
95.2	-2546.39	-25.1465
95.3	-2547.61	-25.3296
95.4	-2545.17	-25.1465
95.5	-2543.03	-25.2686
95.6	-2545.78	-25.177
95.7	-2558.9	-25.2686
95.8	-2568.05	-25.1465
95.9	-2564.09	-25.2991
96	-2557.37	-25.1465
96.1	-2554.32	-25.2686
96.2	-2549.13	-25.177
96.3	-2538.45	-25.2686
96.4	-2542.72	-25.2075
96.5	-2561.04	-25.116
96.6	-2562.87	-25.2686
96.7	-2548.52	-25.116
96.8	-2548.52	-25.1465
96.9	-2545.47	-25.238
97	-2533.87	-25.116
97.1	-2534.48	-25.238
97.2	-2539.67	-25.1465
97.3	-2546.39	-25.2991
97.4	-2548.52	-25.1465
97.5	-2545.17	-25.177
97.6	-2543.33	-25.2991
97.7	-2544.56	-25.1465
97.8	-2540.89	-25.1465
97.9	-2532.96	-25.3296
98	-2531.74	-25.177
98.1	-2537.84	-25.0854
98.2	-2529.6	-25.1465
98.3	-2524.11	-25.2686
98.4	-2536.62	-25.2686
98.5	-2540.28	-25.2686
98.6	-2537.54	-25.2686
98.7	-2531.13	-25.1465
98.8	-2526.86	-25.177
98.9	-2538.76	-25.3296
99	-2544.56	-25.2075
99.1	-2543.95	-25.1465
99.2	-2542.11	-25.1465
99.3	-2539.67	-25.177
99.4	-2546.69	-25.2991
99.5	-2544.56	-25.2075
99.6	-2533.57	-25.116
99.7	-2533.87	-25.238
99.8	-2533.87	-25.2686
99.9	-2532.96	-25.1465
100	-2528.99	-25.116
100.1	-2525.33	-30.1514
100.2	-2565.61	-30.2429
100.3	-2801.21	-30.2124
100.4	-3009.95	-30.1514
100.5	-3034.67	-30.1208
100.6	-3028.26	-30.1208
100.7	-3028.26	-30.2429
100.8	-3019.1	-30.1514
100.9	-3020.94	-30.0903
101	-3023.07	-30.2429
101.1	-3016.97	-30.1819
101.2	-3020.02	-30.0903
101.3	-3030.4	-30.2124
101.4	-3031.31	-30.1514
101.5	-3013.61	-30.2124
101.6	-3007.2	-30.1208
101.7	-3013.61	-30.2124
101.8	-3006.29	-30.1208
101.9	-3004.76	-30.1514
102	-2998.05	-30.1514
102.1	-3006.29	-30.1208
102.2	-3017.58	-30.1819
102.3	-3004.76	-30.1514
102.4	-2987.37	-30.1819
102.5	-2987.98	-30.1514
102.6	-2980.65	-30.1819
102.7	-2969.36	-30.0903
102.8	-2980.04	-30.2429
102.9	-3000.49	-30.2124
103	-3008.12	-30.0903
103.1	-3000.18	-30.1208
103.2	-2984.31	-30.2124
103.3	-2987.37	-30.2429
103.4	-2989.5	-30.2429
103.5	-2975.16	-30.1514
103.6	-2982.79	-30.1208
103.7	-2995.91	-30.1514
103.8	-2996.83	-30.0903
103.9	-2995.91	-30.1208
104	-2998.05	-30.1819
104.1	-2998.96	-30.2124
104.2	-3001.4	-30.0903
104.3	-3004.46	-30.1208
104.4	-3004.46	-30.2734
104.5	-2999.57	-30.1208
104.6	-3006.29	-30.2124
104.7	-3011.78	-30.304
104.8	-3002.62	-30.1208
104.9	-2995.91	-30.0598
105	-2986.15	-30.2734
105.1	-2982.79	-30.1208
105.2	-2983.09	-30.2124
105.3	-2976.38	-30.2124
105.4	-2980.04	-30.0903
105.5	-2982.48	-30.2124
105.6	-2986.45	-30.2124
105.7	-2985.53	-30.1208
105.8	-2977.29	-30.1819
105.9	-2981.87	-30.1514
106	-2992.25	-30.2429
106.1	-2999.27	-30.1208
106.2	-2999.88	-30.1514
106.3	-2993.16	-30.2124
106.4	-2987.06	-30.0598
106.5	-2975.46	-30.2734
106.6	-2962.04	-30.1819
106.7	-2965.39	-30.0903
106.8	-2966.92	-30.1514
106.9	-2974.24	-30.2734
107	-2987.06	-30.1208
107.1	-2983.7	-30.0903
107.2	-2971.8	-30.304
107.3	-2966.92	-30.0903
107.4	-2969.67	-30.0903
107.5	-2979.13	-30.2124
107.6	-2979.74	-30.1819
107.7	-2990.11	-30.2124
107.8	-2994.08	-30.2734
107.9	-2978.52	-30.1208
108	-2964.17	-30.1208
108.1	-2962.04	-30.1514
108.2	-2955.63	-30.2124
108.3	-2951.66	-30.1514
108.4	-2948	-30.1208
108.5	-2946.47	-30.0903
108.6	-2940.37	-30.2124
108.7	-2949.52	-30.1819
108.8	-2961.43	-30.1208
108.9	-2951.35	-30.2124
109	-2954.41	-30.2124
109.1	-2965.7	-30.1208
109.2	-2969.06	-30.1208
109.3	-2961.73	-30.1208
109.4	-2949.52	-30.1514
109.5	-2951.97	-30.1819
109.6	-2957.15	-30.2734
109.7	-2957.46	-30.1208
109.8	-2959.9	-30.0903
109.9	-2962.95	-30.2124
110	-2961.12	-30.2429
110.1	-2949.52	-30.1819
110.2	-2944.34	-35.2173
110.3	-2994.38	-35.0952
110.4	-3230.29	-35.0647
110.5	-3391.11	-35.1563
110.6	-3398.44	-35.2783
110.7	-3403.93	-35.0952
110.8	-3400.88	-35.0952
110.9	-3383.48	-35.2478
111	-3375.55	-35.1868
111.1	-3384.09	-35.0952
111.2	-3378.3	-35.0952
111.3	-3367.61	-35.1868
111.4	-3372.8	-35.2478
111.5	-3370.67	-35.1868
111.6	-3356.32	-35.2173
111.7	-3365.17	-35.1868
111.8	-3379.52	-35.1563
111.9	-3383.48	-35.1868
112	-3368.84	-35.1257
112.1	-3367	-35.0647
112.2	-3376.46	-35.1257
112.3	-3375.24	-35.1257
112.4	-3374.63	-35.0647
112.5	-3375.24	-35.1868
112.6	-3369.14	-35.2783
112.7	-3347.78	-35.1868
112.8	-3334.05	-35.1868
112.9	-3329.47	-35.1563
113	-3314.21	-35.0647
113.1	-3304.44	-35.0952
113.2	-3317.26	-35.2478
113.3	-3331.6	-35.1257
113.4	-3334.96	-35.0647
113.5	-3318.79	-35.2173
113.6	-3313.29	-35.2173
113.7	-3325.5	-35.1563
113.8	-3334.35	-35.1257
113.9	-3337.71	-35.2478
114	-3336.49	-35.1257
114.1	-3331.91	-35.1257
114.2	-3323.97	-35.0647
114.3	-3319.7	-35.0952
114.4	-3308.41	-35.2173
114.5	-3321.23	-35.2783
114.6	-3350.83	-35.1563
114.7	-3358.15	-35.0952
114.8	-3352.97	-35.2173
114.9	-3338.32	-35.2173
115	-3329.16	-35.1257
115.1	-3329.47	-35.0952
115.2	-3333.74	-35.1563
115.3	-3349	-35.0647
115.4	-3355.1	-35.2478
115.5	-3355.71	-35.2478
115.6	-3360.9	-35.0952
115.7	-3348.69	-35.1257
115.8	-3321.23	-35.2173
115.9	-3306.88	-35.1257
116	-3317.87	-35.1257
116.1	-3330.99	-35.2478
116.2	-3334.05	-35.0647
116.3	-3328.86	-35.1868
116.4	-3321.23	-35.2478
116.5	-3316.96	-35.1257
116.6	-3313.9	-35.0647
116.7	-3290.71	-35.2478
116.8	-3279.42	-35.2173
116.9	-3289.79	-35.0952
117	-3306.27	-35.1868
117.1	-3309.02	-35.1868
117.2	-3308.41	-35.2478
117.3	-3323.06	-35.2173
117.4	-3326.42	-35.0952
117.5	-3314.51	-35.0647
117.6	-3314.82	-35.2173
117.7	-3317.57	-35.1868
117.8	-3307.5	-35.0952
117.9	-3309.63	-35.2478
118	-3314.21	-35.1563
118.1	-3306.88	-35.0952
118.2	-3307.19	-35.1257
118.3	-3309.63	-35.2783
118.4	-3305.97	-35.1563
118.5	-3304.14	-35.0952
118.6	-3309.02	-35.2173
118.7	-3312.99	-35.2173
118.8	-3317.26	-35.0952
118.9	-3320.31	-35.1563
119	-3322.45	-35.2478
119.1	-3330.99	-35.0647
119.2	-3338.01	-35.1563
119.3	-3332.52	-35.2478
119.4	-3318.48	-35.0647
119.5	-3301.7	-35.1868
119.6	-3313.29	-35.2173
119.7	-3330.99	-35.0952
119.8	-3323.67	-35.2478
119.9	-3319.7	-35.1563
120	-3329.47	-35.2173
120.1	-3347.17	-40.1306
120.2	-3399.96	-40.1917
120.3	-3605.35	-40.1306
120.4	-3739.32	-40.1917
120.5	-3733.22	-40.0696
120.6	-3740.54	-40.2527
120.7	-3769.84	-40.1611
120.8	-3771.06	-40.1917
120.9	-3764.95	-40.1306
121	-3756.41	-40.1917
121.1	-3742.68	-40.1306
121.2	-3742.07	-40.1917
121.3	-3746.34	-40.1611
121.4	-3747.25	-40.1917
121.5	-3757.02	-40.1001
121.6	-3779.91	-40.2222
121.7	-3789.67	-40.1306
121.8	-3786.93	-40.0696
121.9	-3792.42	-40.2527
122	-3795.78	-40.1306
122.1	-3781.43	-40.1917
122.2	-3764.04	-40.1306
122.3	-3774.72	-40.1917
122.4	-3788.45	-40.1001
122.5	-3784.18	-40.2527
122.6	-3775.94	-40.1306
122.7	-3773.5	-40.1611
122.8	-3775.33	-40.1917
122.9	-3775.94	-40.1001
123	-3785.1	-40.1611
123.1	-3784.79	-40.2222
123.2	-3788.45	-40.1001
123.3	-3788.45	-40.2527
123.4	-3783.87	-40.1611
123.5	-3793.64	-40.1306
123.6	-3794.86	-40.1917
123.7	-3787.84	-40.1917
123.8	-3774.72	-40.1306
123.9	-3754.27	-40.1306
124	-3747.25	-40.1611
124.1	-3752.14	-40.1917
124.2	-3776.55	-40.0391
124.3	-3779.3	-40.2222
124.4	-3747.56	-40.1306
124.5	-3724.67	-40.1917
124.6	-3740.84	-40.1001
124.7	-3741.15	-40.1917
124.8	-3737.49	-40.1001
124.9	-3739.93	-40.2222
125	-3717.96	-40.1611
125.1	-3700.26	-40.1001
125.2	-3690.8	-40.1611
125.3	-3687.13	-40.1611
125.4	-3684.39	-40.1306
125.5	-3685	-40.2527
125.6	-3691.71	-40.1306
125.7	-3716.43	-40.1917
125.8	-3740.84	-40.2527
125.9	-3735.66	-40.1001
126	-3717.04	-40.2527
126.1	-3725.89	-40.1611
126.2	-3726.2	-40.1611
126.3	-3710.02	-40.1611
126.4	-3718.57	-40.1917
126.5	-3713.99	-40.1001
126.6	-3706.05	-40.2527
126.7	-3719.48	-40.1306
126.8	-3723.75	-40.2527
126.9	-3721.31	-40.1001
127	-3720.7	-40.1917
127.1	-3706.05	-40.1611
127.2	-3671.57	-40.1917
127.3	-3656.01	-40.1001
127.4	-3680.11	-40.3137
127.5	-3701.78	-40.1001
127.6	-3699.65	-40.1306
127.7	-3671.88	-40.1917
127.8	-3653.56	-40.1306
127.9	-3659.36	-40.2527
128	-3679.2	-40.1306
128.1	-3674.62	-40.2527
128.2	-3654.48	-40.1306
128.3	-3660.28	-40.1917
128.4	-3675.84	-40.1917
128.5	-3679.81	-40.1611
128.6	-3696.59	-40.1306
128.7	-3690.8	-40.3137
128.8	-3672.79	-40.1306
128.9	-3666.99	-40.1917
129	-3675.54	-40.1917
129.1	-3680.73	-40.1001
129.2	-3679.5	-40.1917
129.3	-3667.6	-40.1306
129.4	-3658.45	-40.2527
129.5	-3685	-40.1001
129.6	-3697.51	-40.2222
129.7	-3700.87	-40.1306
129.8	-3715.21	-40.1611
129.9	-3721.01	-40.2832
130	-3724.98	-40.1001
130.1	-3717.65	-40.2222
130.2	-3711.24	-45.0439
130.3	-3729.25	-45.2576
130.4	-3901.67	-45.0745
130.5	-4052.12	-45.105
130.6	-4076.54	-45.2576
130.7	-4088.75	-45.0745
130.8	-4066.77	-45.1965
130.9	-4027.71	-45.166
131	-4029.54	-45.0439
131.1	-4059.45	-45.1965
131.2	-4061.28	-45.1355
131.3	-4031.98	-45.1965
131.4	-4005.74	-45.0439
131.5	-4014.59	-45.2271
131.6	-4031.98	-45.0745
131.7	-4042.36	-45.166
131.8	-4031.68	-45.105
131.9	-4002.38	-45.166
132	-4012.45	-45.0745
132.1	-4039.61	-45.2576
132.2	-4053.65	-45.0745
132.3	-4043.27	-45.0745
132.4	-4035.64	-45.2576
132.5	-4024.66	-45.166
132.6	-4002.38	-45.0745
132.7	-3978.88	-45.2271
132.8	-3981.02	-45.1965
132.9	-4002.08	-45.0439
133	-4000.85	-45.2576
133.1	-3998.11	-45.1355
133.2	-4021	-45.0745
133.3	-4030.76	-45.2271
133.4	-4021.61	-45.166
133.5	-4032.9	-45.0745
133.6	-4056.4	-45.1965
133.7	-4060.36	-45.1355
133.8	-4035.03	-45.0745
133.9	-4009.7	-45.2881
134	-3994.75	-45.105
134.1	-3983.15	-45.1355
134.2	-3993.23	-45.2576
134.3	-3981.63	-45.0745
134.4	-3942.26	-45.2271
134.5	-3920.59	-45.1355
134.6	-3938.29	-45.1965
134.7	-3974	-45.1355
134.8	-3978.88	-45.105
134.9	-3964.23	-45.105
135	-3948.36	-45.166
135.1	-3937.68	-45.166
135.2	-3956.3	-45.105
135.3	-3984.38	-45.2271
135.4	-3984.07	-45.0745
135.5	-3975.22	-45.1965
135.6	-3977.97	-45.166
135.7	-3983.46	-45.0439
135.8	-3982.24	-45.1965
135.9	-3985.9	-45.1355
136	-3981.93	-45.2271
136.1	-3984.68	-45.105
136.2	-3984.99	-45.105
136.3	-3980.41	-45.2271
136.4	-3990.78	-45.166
136.5	-3998.41	-45.1355
136.6	-4006.04	-45.0745
136.7	-3995.06	-45.166
136.8	-3988.65	-45.2576
136.9	-4002.69	-45.1355
137	-4009.7	-45.105
137.1	-4015.5	-45.1355
137.2	-4030.46	-45.2271
137.3	-4026.79	-45.2271
137.4	-3996.58	-45.0745
137.5	-3953.25	-45.105
137.6	-3937.07	-45.1965
137.7	-3927.92	-45.0745
137.8	-3917.85	-45.0745
137.9	-3929.44	-45.2881
138	-3933.11	-45.1355
138.1	-3932.8	-45.0745
138.2	-3913.88	-45.2576
138.3	-3895.57	-45.166
138.4	-3889.77	-45.0745
138.5	-3890.08	-45.1355
138.6	-3903.2	-45.2271
138.7	-3918.76	-45.1355
138.8	-3915.41	-45.105
138.9	-3911.13	-45.0439
139	-3912.35	-45.2576
139.1	-3915.1	-45.0745
139.2	-3921.2	-45.1355
139.3	-3931.88	-45.166
139.4	-3943.48	-45.0745
139.5	-3937.68	-45.1965
139.6	-3920.29	-45.1355
139.7	-3912.66	-45.105
139.8	-3928.83	-45.166
139.9	-3953.25	-45.105
140	-3949.58	-45.2271
140.1	-3954.77	-45.105
140.2	-3963.32	-50.2014
140.3	-4029.85	-50.1099
140.4	-4248.35	-50.1404
140.5	-4360.35	-50.2014
140.6	-4351.2	-50.0488
140.7	-4317.02	-50.2625
140.8	-4296.88	-50.0793
140.9	-4270.63	-50.1099
141	-4254.15	-50.1404
141.1	-4272.77	-50.2014
141.2	-4280.4	-50.1099
141.3	-4275.51	-50.1404
141.4	-4276.12	-50.1404
141.5	-4270.32	-50.0793
141.6	-4274.29	-50.2625
141.7	-4275.51	-50.0793
141.8	-4254.76	-50.2319
141.9	-4230.65	-50.1099
142	-4231.26	-50.2319
142.1	-4259.03	-50.1404
142.2	-4277.95	-50.1709
142.3	-4284.36	-50.0488
142.4	-4292.91	-50.2014
142.5	-4303.89	-50.1099
142.6	-4276.12	-50.0793
142.7	-4252.62	-50.1709
142.8	-4237.37	-50.1404
142.9	-4219.06	-50.1404
143	-4216	-50.1404
143.1	-4216	-50.1099
143.2	-4226.68	-50.1404
143.3	-4231.87	-50.1099
143.4	-4226.68	-50.1709
143.5	-4241.94	-50.1709
143.6	-4256.9	-50.1099
143.7	-4249.57	-50.1709
143.8	-4243.77	-50.2014
143.9	-4247.74	-50.0793
144	-4241.03	-50.0793
144.1	-4240.42	-50.2625
144.2	-4251.71	-50.0793
144.3	-4246.52	-50.1099
144.4	-4222.11	-50.1709
144.5	-4206.24	-50.1099
144.6	-4203.19	-50.2625
144.7	-4199.83	-50.1099
144.8	-4199.52	-50.1404
144.9	-4208.37	-50.2625
145	-4192.81	-50.1099
145.1	-4164.12	-50.1099
145.2	-4179.99	-50.1709
145.3	-4209.59	-50.1099
145.4	-4190.67	-50.2014
145.5	-4189.45	-50.0793
145.6	-4209.59	-50.1709
145.7	-4223.94	-50.1099
145.8	-4231.26	-50.2014
145.9	-4245.91	-50.0793
146	-4255.68	-50.1404
146.1	-4264.22	-50.2014
146.2	-4276.73	-50.0793
146.3	-4286.5	-50.1709
146.4	-4264.22	-50.1099
146.5	-4228.82	-50.1404
146.6	-4210.21	-50.2319
146.7	-4192.5	-50.0793
146.8	-4173.58	-50.2014
146.9	-4168.09	-50.1099
147	-4201.97	-50.1404
147.1	-4261.17	-50.1404
147.2	-4289.86	-50.1709
147.3	-4283.14	-50.1099
147.4	-4276.43	-50.2319
147.5	-4268.19	-50.0488
147.6	-4242.55	-50.2014
147.7	-4208.98	-50.1099
147.8	-4227.6	-50.0793
147.9	-4251.71	-50.2319
148	-4268.19	-50.2014
148.1	-4287.11	-50.0793
148.2	-4272.46	-50.2319
148.3	-4232.79	-50.1099
148.4	-4217.53	-50.2014
148.5	-4215.39	-50.1404
148.6	-4215.09	-50.0793
148.7	-4210.82	-50.2319
148.8	-4216	-50.1404
148.9	-4241.94	-50.1404
149	-4279.79	-50.2319
149.1	-4292.91	-50.0488
149.2	-4270.32	-50.2319
149.3	-4261.78	-50.0793
149.4	-4271.24	-50.1709
149.5	-4260.86	-50.1709
149.6	-4250.79	-50.0793
149.7	-4250.79	-50.2014
149.8	-4253.85	-50.2014
149.9	-4249.88	-50.0183
150	-4252.93	-50.1404
150.1	-4268.49	-55.1147
150.2	-4290.77	-55.1147
150.3	-4432.37	-55.1758
150.4	-4637.45	-55.2063
150.5	-4679.57	-55.1453
150.6	-4653.32	-55.0537
150.7	-4667.05	-55.1453
150.8	-4664.92	-55.2063
150.9	-4624.94	-55.0537
151	-4605.1	-55.2368
151.1	-4628.6	-55.1147
151.2	-4683.23	-55.2063
151.3	-4699.1	-55.1453
151.4	-4672.24	-55.0842
151.5	-4640.81	-55.2063
151.6	-4620.36	-55.1758
151.7	-4620.97	-55.0537
151.8	-4615.17	-55.1453
151.9	-4593.81	-55.2368
152	-4576.11	-55.1758
152.1	-4563.29	-55.1147
152.2	-4567.87	-55.0232
152.3	-4552	-55.1758
152.4	-4520.57	-55.1453
152.5	-4517.52	-55.2063
152.6	-4531.56	-55.1453
152.7	-4542.85	-55.0842
152.8	-4551.39	-55.0842
152.9	-4555.97	-55.2368
153	-4571.53	-55.2368
153.1	-4604.19	-55.1453
153.2	-4602.36	-55.1147
153.3	-4584.35	-55.1147
153.4	-4629.21	-55.1147
153.5	-4691.47	-55.1758
153.6	-4690.86	-55.1758
153.7	-4652.71	-55.0842
153.8	-4615.17	-55.2063
153.9	-4598.39	-55.2368
154	-4595.95	-55.1147
154.1	-4618.23	-55.1147
154.2	-4641.42	-55.1758
154.3	-4626.77	-55.2368
154.4	-4579.47	-55.1758
154.5	-4573.67	-55.0537
154.6	-4596.56	-55.2673
154.7	-4603.88	-55.0537
154.8	-4592.9	-55.1147
154.9	-4573.06	-55.2368
155	-4564.21	-55.0537
155.1	-4569.7	-55.1147
155.2	-4576.11	-55.2063
155.3	-4587.4	-55.1758
155.4	-4597.17	-55.1147
155.5	-4602.05	-55.1758
155.6	-4602.36	-55.2063
155.7	-4592.9	-55.0537
155.8	-4599.3	-55.2063
155.9	-4613.65	-55.1453
156	-4626.77	-55.0537
156.1	-4625.55	-55.1147
156.2	-4617	-55.2063
156.3	-4622.5	-55.1453
156.4	-4647.83	-55.0537
156.5	-4670.72	-55.2368
156.6	-4634.7	-55.1453
156.7	-4576.42	-55.1147
156.8	-4568.48	-55.1758
156.9	-4584.66	-55.1453
157	-4564.51	-55.1147
157.1	-4548.65	-55.2063
157.2	-4547.73	-55.0842
157.3	-4556.58	-55.2063
157.4	-4569.7	-55.0842
157.5	-4586.18	-55.2368
157.6	-4578.25	-55.1147
157.7	-4570.01	-55.0842
157.8	-4567.87	-55.1453
157.9	-4543.46	-55.2368
158	-4536.44	-55.0842
158.1	-4547.73	-55.1147
158.2	-4563.29	-55.2063
158.3	-4563.29	-55.1453
158.4	-4547.12	-55.2368
158.5	-4549.56	-55.0842
158.6	-4552.61	-55.2063
158.7	-4557.5	-55.0232
158.8	-4569.7	-55.1758
158.9	-4594.73	-55.0842
159	-4589.84	-55.1453
159.1	-4561.77	-55.1147
159.2	-4528.2	-55.0842
159.3	-4484.86	-55.1758
159.4	-4459.53	-55.1453
159.5	-4466.86	-55.1147
159.6	-4501.95	-55.2063
159.7	-4563.6	-55.0537
159.8	-4604.8	-55.1758
159.9	-4606.02	-55.1453
160	-4570.31	-55.1453
160.1	-4539.49	-55.2063
160.2	-4529.11	-60.0891
160.3	-4609.68	-60.2722
160.4	-4819.34	-60.0586
160.5	-4898.38	-60.2112
160.6	-4906.31	-60.1501
160.7	-4916.08	-60.0586
160.8	-4888.61	-60.2417
160.9	-4859.62	-60.0891
161	-4885.56	-60.2417
161.1	-4894.71	-60.1196
161.2	-4870.91	-60.1196
161.3	-4872.44	-60.1196
161.4	-4891.36	-60.0891
161.5	-4904.48	-60.2112
161.6	-4926.45	-60.1196
161.7	-4949.34	-60.0891
161.8	-4967.65	-60.1196
161.9	-4982.6	-60.1807
162	-4988.71	-60.1196
162.1	-4968.26	-60.1501
162.2	-4942.32	-60.1501
162.3	-4949.65	-60.1807
162.4	-4954.53	-60.0281
162.5	-4954.22	-60.2112
162.6	-4966.43	-60.1501
162.7	-4967.65	-60.0586
162.8	-4971.01	-60.2722
162.9	-4948.73	-60.1196
163	-4928.59	-60.0891
163.1	-4909.97	-60.2112
163.2	-4906.92	-60.0891
163.3	-4938.35	-60.1501
163.4	-4978.94	-60.2112
163.5	-5000.61	-60.1196
163.6	-5009.77	-60.0891
163.7	-5004.58	-60.2112
163.8	-4982.3	-60.1807
163.9	-4963.07	-60.0891
164	-4954.83	-60.1807
164.1	-4944.76	-60.2112
164.2	-4938.05	-60.0586
164.3	-4946.59	-60.2112
164.4	-4937.44	-60.0891
164.5	-4922.18	-60.0281
164.6	-4940.49	-60.2112
164.7	-4980.77	-60.1196
164.8	-4972.84	-60.1196
164.9	-4951.48	-60.2112
165	-4945.68	-60.1196
165.1	-4946.29	-60.0891
165.2	-4931.64	-60.1807
165.3	-4918.21	-60.0891
165.4	-4920.96	-60.2112
165.5	-4907.23	-60.1196
165.6	-4899.9	-60.0891
165.7	-4919.13	-60.0891
165.8	-4940.8	-60.1807
165.9	-4949.65	-60.1807
166	-4928.28	-60.2417
166.1	-4906.01	-60.2112
166.2	-4896.85	-60.0891
166.3	-4892.88	-60.1196
166.4	-4904.17	-60.0586
166.5	-4907.53	-60.2417
166.6	-4911.8	-60.1501
166.7	-4912.11	-60.0281
166.8	-4892.88	-60.2112
166.9	-4855.35	-60.2112
167	-4841.61	-60.2112
167.1	-4876.71	-60.0281
167.2	-4895.63	-60.1807
167.3	-4867.55	-60.2112
167.4	-4876.4	-60.0586
167.5	-4910.89	-60.2722
167.6	-4937.44	-60.0891
167.7	-4953.92	-60.2112
167.8	-4966.74	-60.1501
167.9	-4974.67	-60.1196
168	-4988.71	-60.1807
168.1	-4997.56	-60.0281
168.2	-4992.07	-60.2417
168.3	-4975.59	-60.1196
168.4	-4981.08	-60.0281
168.5	-4981.99	-60.2417
168.6	-4981.08	-60.1807
168.7	-4986.57	-60.0891
168.8	-4970.09	-60.1501
168.9	-4934.69	-60.2112
169	-4935.91	-60.2112
169.1	-4942.93	-60.0891
169.2	-4938.96	-60.0891
169.3	-4924.62	-60.2722
169.4	-4901.73	-60.2417
169.5	-4904.48	-60.1807
169.6	-4906.01	-60.0891
169.7	-4886.17	-60.0586
169.8	-4873.66	-60.1807
169.9	-4853.21	-60.2112
170	-4844.36	-60.2112
170.1	-4898.07	-65.0635
170.2	-4978.94	-65.0635
170.3	-5147.4	-65.2161
170.4	-5323.49	-65.0635
170.5	-5388.79	-65.0635
170.6	-5409.24	-65.1855
170.7	-5419.01	-65.033
170.8	-5422.36	-65.155
170.9	-5428.77	-65.0635
171	-5435.49	-65.2161
171.1	-5435.79	-65.094
171.2	-5428.16	-65.1855
171.3	-5443.73	-65.094
171.4	-5470.89	-65.094
171.5	-5513	-65.2161
171.6	-5555.42	-65.033
171.7	-5513.31	-65.155
171.8	-5458.68	-65.094
171.9	-5476.99	-65.094
172	-5508.73	-65.1245
172.1	-5501.71	-65.0635
172.2	-5469.97	-65.1245
172.3	-5469.06	-65.033
172.4	-5469.36	-65.2161
172.5	-5463.26	-65.0635
172.6	-5452.27	-65.1245
172.7	-5440.98	-65.155
172.8	-5412.6	-65.0635
172.9	-5398.25	-65.1245
173	-5408.94	-65.0635
173.1	-5383.61	-65.1245
173.2	-5368.96	-65.155
173.3	-5378.42	-65.094
173.4	-5390.63	-65.094
173.5	-5382.69	-65.1855
173.6	-5356.45	-65.033
173.7	-5339.66	-65.1245
173.8	-5342.1	-65.0635
173.9	-5360.72	-65.155
174	-5350.34	-65.094
174.1	-5324.1	-65.1855
174.2	-5320.74	-65.094
174.3	-5326.23	-65.1855
174.4	-5319.52	-65.155
174.5	-5343.93	-65.033
174.6	-5357.36	-65.155
174.7	-5371.09	-65.155
174.8	-5384.52	-65.0635
174.9	-5357.36	-65.2161
175	-5315.86	-65.155
175.1	-5307.62	-65.094
175.2	-5340.88	-65.1855
175.3	-5356.45	-65.1245
175.4	-5359.19	-65.0635
175.5	-5386.35	-65.2466
175.6	-5408.94	-65.0635
175.7	-5425.72	-65.1245
175.8	-5414.12	-65.1245
175.9	-5386.66	-64.9719
176	-5379.64	-65.2466
176.1	-5359.19	-65.155
176.2	-5360.72	-65.0635
176.3	-5401.61	-65.155
176.4	-5415.65	-65.094
176.5	-5403.14	-65.2161
176.6	-5392.76	-65.094
176.7	-5396.73	-65.1855
176.8	-5415.95	-65.1245
176.9	-5443.42	-65.0635
177	-5480.96	-65.1855
177.1	-5489.81	-65.1245
177.2	-5482.48	-65.0635
177.3	-5482.18	-65.0635
177.4	-5465.39	-65.1245
177.5	-5452.27	-65.2161
177.6	-5454.1	-65.094
177.7	-5464.17	-65.0635
177.8	-5486.76	-65.0635
177.9	-5478.21	-65.2466
178	-5452.88	-65.1245
178.1	-5418.09	-65.094
178.2	-5378.42	-65.094
178.3	-5375.06	-65.1245
178.4	-5389.71	-65.0635
178.5	-5391.24	-65.155
178.6	-5393.68	-65.094
178.7	-5390.32	-65.1855
178.8	-5375.37	-65.0635
178.9	-5386.96	-65.1855
179	-5412.6	-65.0635
179.1	-5398.86	-65.2161
179.2	-5399.17	-65.0635
179.3	-5396.42	-65.1855
179.4	-5351.26	-65.1245
179.5	-5292.66	-65.1245
179.6	-5251.77	-65.1245
179.7	-5233.46	-65.094
179.8	-5256.04	-65.094
179.9	-5270.39	-65.1245
180	-5278.63	-65.1245
180.1	-5299.07	-70.1599
180.2	-5325.93	-70.1294
180.3	-5503.54	-70.1294
180.4	-5711.06	-70.1599
180.5	-5796.51	-70.0684
180.6	-5832.52	-70.2209
180.7	-5854.8	-70.0378
180.8	-5869.45	-70.2209
180.9	-5846.25	-70.0684
181	-5836.49	-70.2209
181.1	-5869.75	-70.0378
181.2	-5880.74	-70.2209
181.3	-5854.49	-70.0684
181.4	-5819.4	-70.2209
181.5	-5816.04	-70.0684
181.6	-5830.99	-70.1599
181.7	-5839.54	-70.1904
181.8	-5840.76	-70.0989
181.9	-5863.04	-70.0378
182	-5876.46	-70.1904
182.1	-5879.82	-70.1294
182.2	-5886.54	-70.0989
182.3	-5890.81	-70.0989
182.4	-5890.81	-70.2209
182.5	-5864.56	-70.0684
182.6	-5820.01	-70.0989
182.7	-5823.97	-70.0684
182.8	-5853.58	-70.1904
182.9	-5855.1	-70.0989
183	-5864.26	-70.0989
183.1	-5900.88	-70.1599
183.2	-5925.6	-70.1904
183.3	-5896.3	-70.0073
183.4	-5849.3	-70.2209
183.5	-5830.69	-70.0989
183.6	-5857.85	-70.0684
183.7	-5881.65	-70.0684
183.8	-5869.45	-70.1599
183.9	-5826.42	-70.1904
184	-5805.66	-70.1294
184.1	-5811.77	-70.1294
184.2	-5839.84	-70.0684
184.3	-5871.28	-70.0684
184.4	-5886.54	-70.0378
184.5	-5882.26	-70.1599
184.6	-5874.63	-70.1599
184.7	-5878.91	-70.1294
184.8	-5854.8	-70.0378
184.9	-5818.48	-70.1599
185	-5836.79	-70.1904
185.1	-5866.09	-70.1904
185.2	-5863.65	-70.0989
185.3	-5846.86	-70.1599
185.4	-5845.03	-70.0989
185.5	-5880.43	-70.0989
185.6	-5892.94	-70.0378
185.7	-5881.35	-70.0989
185.8	-5876.77	-70.0684
185.9	-5877.69	-70.1294
186	-5876.16	-70.1599
186.1	-5863.34	-70.1904
186.2	-5857.85	-70.0989
186.3	-5829.16	-70.1294
186.4	-5781.86	-70.0073
186.5	-5772.09	-70.0989
186.6	-5769.35	-70.0378
186.7	-5768.74	-70.1294
186.8	-5780.33	-70.1599
186.9	-5764.77	-70.2515
187	-5757.45	-70.0989
187.1	-5769.35	-70.0684
187.2	-5771.48	-70.0989
187.3	-5784.61	-70.1904
187.4	-5795.29	-70.1294
187.5	-5789.79	-70.0989
187.6	-5779.11	-70.0684
187.7	-5754.39	-70.0684
187.8	-5737.61	-70.1599
187.9	-5715.64	-70.0989
188	-5672.91	-70.0073
188.1	-5682.68	-70.1599
188.2	-5739.44	-70.1599
188.3	-5788.88	-70.0989
188.4	-5838.93	-70.0684
188.5	-5853.88	-70.0684
188.6	-5834.35	-70.0684
188.7	-5835.57	-70.1294
188.8	-5849.61	-70.1599
188.9	-5873.11	-70.1904
189	-5897.52	-70.1904
189.1	-5891.11	-70.0684
189.2	-5862.12	-70.0684
189.3	-5820.62	-70.1904
189.4	-5779.72	-70.1599
189.5	-5762.94	-70.0073
189.6	-5778.81	-70.2209
189.7	-5814.51	-70.0684
189.8	-5830.69	-70.2209
189.9	-5816.96	-70.0989
190	-5790.71	-70.0989
190.1	-5776.67	-70.1904
190.2	-5782.17	-75.1343
190.3	-5866.7	-74.9817
190.4	-6107.18	-75.1953
190.5	-6234.74	-75.0732
190.6	-6252.14	-75.1038
190.7	-6266.17	-75.0122
190.8	-6278.69	-75.1343
190.9	-6304.63	-75.1343
191	-6312.56	-75.0427
191.1	-6309.2	-75.0122
191.2	-6351.32	-75.0427
191.3	-6397.71	-75.1953
191.4	-6401.06	-75.0122
191.5	-6375.73	-75.0732
191.6	-6348.88	-74.9817
191.7	-6344.6	-75.1343
191.8	-6328.43	-75.1038
191.9	-6303.41	-75.1648
192	-6293.33	-75.1648
192.1	-6289.67	-75.0732
192.2	-6286.93	-75.0427
192.3	-6306.46	-75.1038
192.4	-6322.02	-75.1343
192.5	-6347.35	-75.1648
192.6	-6338.5	-75.1038
192.7	-6335.75	-75.0427
192.8	-6375.73	-75.0122
192.9	-6414.18	-75.1343
193	-6419.07	-75.1953
193.1	-6403.81	-75.0427
193.2	-6383.67	-75.0732
193.3	-6372.07	-75.1343
193.4	-6353.15	-75.0732
193.5	-6330.26	-75.0732
193.6	-6300.05	-75.1953
193.7	-6290.89	-75.1038
193.8	-6306.46	-75.0427
193.9	-6329.65	-75.0122
194	-6370.24	-75.1038
194.1	-6392.82	-75.0732
194.2	-6396.79	-75.0122
194.3	-6369.63	-75.0427
194.4	-6358.95	-75.0122
194.5	-6369.02	-75.0427
194.6	-6345.83	-75.0122
194.7	-6300.05	-75.0427
194.8	-6281.13	-75.0427
194.9	-6305.85	-75.0732
195	-6308.59	-74.9817
195.1	-6256.71	-75.1953
195.2	-6192.63	-75.1648
195.3	-6174.01	-75.0732
195.4	-6189.27	-75.0122
195.5	-6206.36	-75.1038
195.6	-6236.88	-75.1343
195.7	-6290.28	-75.0427
195.8	-6329.96	-75.0427
195.9	-6345.83	-75.1953
196	-6351.93	-75.1648
196.1	-6340.03	-75.0732
196.2	-6316.22	-75.0427
196.3	-6297.61	-75.1343
196.4	-6317.14	-75.1953
196.5	-6345.21	-75.0732
196.6	-6341.86	-75.1038
196.7	-6319.89	-74.9817
196.8	-6319.58	-75.0427
196.9	-6350.71	-75.0427
197	-6343.38	-75.1038
197.1	-6340.33	-75.1038
197.2	-6348.57	-75.2258
197.3	-6323.85	-75.1038
197.4	-6301.88	-75.1038
197.5	-6257.63	-75.0732
197.6	-6211.55	-75.1038
197.7	-6228.94	-75.0732
197.8	-6257.02	-75.1953
197.9	-6253.97	-75.1953
198	-6242.68	-75.1343
198.1	-6268.62	-75.0427
198.2	-6259.16	-75.0732
198.3	-6245.73	-75.0732
198.4	-6281.43	-75.0122
198.5	-6276.86	-75.0732
198.6	-6252.75	-74.9817
198.7	-6222.84	-75.0427
198.8	-6222.84	-75.0122
198.9	-6225.28	-75.1038
199	-6222.53	-75.0732
199.1	-6241.76	-75.1953
199.2	-6240.54	-75.1343
199.3	-6232.6	-75.1648
199.4	-6222.84	-75.1343
199.5	-6198.12	-75.1953
199.6	-6156.31	-75.1953
199.7	-6127.32	-75.1953
199.8	-6122.74	-75.1648
199.9	-6127.93	-75.2258
200	-6141.05	-75.1343
200.1	-6165.77	-75.1343
200.2	-6197.51	-80.1086
200.3	-6299.74	-80.0781
200.4	-6545.1	-80.0781
200.5	-6655.58	-80.0781
200.6	-6665.95	-80.0171
200.7	-6691.59	-80.0476
200.8	-6667.18	-80.0171
200.9	-6652.53	-80.0476
201	-6679.99	-80.0476
201.1	-6665.34	-80.0476
201.2	-6673.28	-80.0171
201.3	-6695.56	-80.0781
201.4	-6687.01	-80.0476
201.5	-6683.96	-80.1697
201.6	-6704.1	-80.1697
201.7	-6746.22	-80.2002
201.8	-6750.49	-80.1697
201.9	-6693.42	-80.2002
202	-6661.68	-80.1086
202.1	-6683.96	-80.1697
202.2	-6673.58	-80.1086
202.3	-6654.97	-80.2002
202.4	-6653.14	-80.1392
202.5	-6649.48	-80.1697
202.6	-6637.27	-80.1392
202.7	-6633	-80.2002
202.8	-6612.85	-80.1697
202.9	-6574.4	-80.1086
203	-6558.23	-80.0781
203.1	-6585.39	-80.0171
203.2	-6627.2	-80.0171
203.3	-6639.71	-80.0476
203.4	-6601.56	-79.9866
203.5	-6574.4	-80.0476
203.6	-6576.23	-80.0171
203.7	-6577.15	-80.0781
203.8	-6587.83	-80.1086
203.9	-6615.6	-80.2002
204	-6631.47	-80.1697
204.1	-6623.84	-80.1086
204.2	-6622.92	-80.0476
204.3	-6657.1	-80.0476
204.4	-6706.24	-80.0476
204.5	-6701.35	-80.0781
204.6	-6648.86	-80.0781
204.7	-6639.1	-80.1086
204.8	-6679.38	-80.1086
204.9	-6662.9	-80.2002
205	-6607.06	-80.1392
205.1	-6586	-80.1392
205.2	-6591.19	-80.1697
205.3	-6575.32	-80.1392
205.4	-6569.82	-80.1392
205.5	-6551.51	-80.1697
205.6	-6544.49	-80.2002
205.7	-6603.7	-80.2002
205.8	-6667.79	-80.1697
205.9	-6654.05	-80.2307
206	-6630.25	-80.1697
206.1	-6588.44	-80.1697
206.2	-6547.24	-80.1392
206.3	-6553.96	-80.1392
206.4	-6595.46	-80.0476
206.5	-6615.6	-80.0781
206.6	-6633.91	-80.0476
206.7	-6657.1	-80.0171
206.8	-6666.56	-80.0171
206.9	-6663.51	-80.0476
207	-6647.64	-79.9866
207.1	-6659.24	-80.0171
207.2	-6656.19	-79.9866
207.3	-6594.54	-80.0171
207.4	-6571.04	-80.0476
207.5	-6577.76	-80.0171
207.6	-6573.49	-80.0781
207.7	-6566.16	-80.1392
207.8	-6584.78	-80.1392
207.9	-6606.14	-80.0171
208	-6603.7	-80.1086
208.1	-6601.56	-80.1697
208.2	-6606.45	-80.2307
208.3	-6606.14	-80.1086
208.4	-6566.16	-80.1392
208.5	-6518.55	-80.1086
208.6	-6531.37	-80.1392
208.7	-6579.59	-80.1086
208.8	-6591.8	-80.1697
208.9	-6576.23	-80.1392
209	-6589.97	-80.2307
209.1	-6624.15	-80.1086
209.2	-6590.88	-80.1086
209.3	-6560.67	-80.0476
209.4	-6589.05	-80.0781
209.5	-6613.16	-80.0476
209.6	-6638.79	-80.0781
209.7	-6640.63	-80.0781
209.8	-6639.1	-80.0781
209.9	-6668.4	-80.1086
210	-6700.44	-80.0781
210.1	-6682.13	-80.1392
210.2	-6614.38	-80.2002
210.3	-6590.27	-80.1392
210.4	-6588.75	-80.1392
210.5	-6556.7	-80.1392
