ATF	1.0
7	3     
"AcquisitionMode=Gap Free"
"Comment="
"YTop=10000,1000"
"YBottom=-10000,-1000"
"SweepStartTimesMS=0.000"
"SignalsExported=Im_Scaled,10_mv"
"Signals="	"Im_Scaled"	"10_mv"
"Time (s)"	"Trace #1 (pA)"	"Trace #1 (mV)"
0	1960.45	19.6838
0.1	1958.92	19.6838
0.2	1953.43	19.7449
0.3	1962.28	19.7449
0.4	1973.57	19.7754
0.5	1972.05	19.7754
0.6	1968.08	19.6838
0.7	1963.5	19.6533
0.8	1966.86	19.7144
0.9	1977.54	19.7754
1	1990.05	19.8059
1.1	1993.41	19.8059
1.2	1979.98	19.7449
1.3	1968.99	19.8364
1.4	1972.66	19.7449
1.5	1962.28	19.7449
1.6	1949.46	19.7449
1.7	1948.55	19.6838
1.8	1951.9	19.7449
1.9	1952.21	19.7144
2	1947.94	19.6533
2.1	1956.18	19.7449
2.2	1972.96	19.7754
2.3	1979.98	19.7144
2.4	1972.35	19.7754
2.5	1961.67	19.5923
2.6	1951.9	19.6228
2.7	1943.05	19.7449
2.8	1940.31	19.6533
2.9	1929.02	19.7449
3	1925.66	19.7754
3.1	1936.34	19.7449
3.2	1936.04	19.8059
3.3	1923.83	19.7754
3.4	1912.23	19.7449
3.5	1912.23	19.8059
3.6	1918.64	19.7449
3.7	1919.86	19.7144
3.8	1912.84	19.7754
3.9	1906.74	19.7754
4	1908.26	19.6533
4.1	1913.15	19.6533
4.2	1916.5	19.6228
4.3	1917.42	19.6228
4.4	1918.33	19.7449
4.5	1915.89	19.7449
4.6	1916.2	19.8059
4.7	1920.17	19.8059
4.8	1916.81	19.7449
4.9	1912.54	19.8059
5	1914.67	19.8059
5.1	1920.78	19.7449
5.2	1919.25	19.7754
5.3	1913.15	19.7449
5.4	1903.08	19.7144
5.5	1890.26	19.7754
5.6	1884.77	19.7754
5.7	1886.9	19.7144
5.8	1889.65	19.7449
5.9	1899.41	19.5923
6	1909.79	19.6228
6.1	1911.93	19.6533
6.2	1906.74	19.6838
6.3	1902.16	19.6533
6.4	1903.69	19.7754
6.5	1907.96	19.7754
6.6	1907.65	19.7449
6.7	1905.21	19.8059
6.8	1906.13	19.6838
6.9	1907.96	19.6533
7	1912.54	19.6838
7.1	1908.26	19.6838
7.2	1909.79	19.6838
7.3	1913.45	19.7144
7.4	1910.4	19.6533
7.5	1910.71	19.6228
7.6	1901.86	19.6228
7.7	1894.53	19.6533
7.8	1891.78	19.7144
7.9	1878.66	19.6533
8	1863.71	19.7754
8.1	1866.15	19.6838
8.2	1872.56	19.6533
8.3	1872.25	19.6228
8.4	1874.69	19.6533
8.5	1878.36	19.7144
8.6	1873.78	19.7449
8.7	1874.08	19.8364
8.8	1883.54	19.7754
8.9	1882.02	19.6533
9	1871.64	19.6838
9.1	1866.76	19.7144
9.2	1863.1	19.7449
9.3	1859.44	19.7144
9.4	1862.49	19.7754
9.5	1864.93	19.7754
9.6	1865.84	19.6838
9.7	1868.29	19.6228
9.8	1872.25	19.6533
9.9	1874.39	19.6228
10	1874.69	19.6228
10.1	1876.83	19.7449
10.2	1868.59	14.74
10.3	1836.55	14.679
10.4	1641.54	14.801
10.5	1476.75	14.801
10.6	1478.88	14.7705
10.7	1495.06	14.7095
10.8	1502.99	14.6484
10.9	1506.65	14.679
11	1508.18	14.6179
11.1	1522.52	14.6484
11.2	1534.12	14.6484
11.3	1539.31	14.6484
11.4	1545.72	14.6179
11.5	1552.43	14.6179
11.6	1551.51	14.679
11.7	1548.16	14.6179
11.8	1546.02	14.679
11.9	1544.8	14.74
12	1546.33	14.679
12.1	1550.29	14.6484
12.2	1554.26	14.6179
12.3	1555.18	14.7095
12.4	1553.65	14.74
12.5	1553.65	14.74
12.6	1551.82	14.7705
12.7	1550.9	14.74
12.8	1558.53	14.6484
12.9	1567.08	14.5874
13	1569.21	14.6484
13.1	1568.6	14.7705
13.2	1574.71	14.74
13.3	1577.45	14.7705
13.4	1574.1	14.7705
13.5	1573.18	14.6484
13.6	1569.52	14.6484
13.7	1571.35	14.7095
13.8	1571.96	14.801
13.9	1570.43	14.74
14	1568.91	14.74
14.1	1568.91	14.801
14.2	1573.79	14.801
14.3	1575.62	14.679
14.4	1573.18	14.679
14.5	1568.91	14.6484
14.6	1571.35	14.5874
14.7	1566.77	14.6179
14.8	1558.23	14.74
14.9	1558.53	14.7705
15	1562.81	14.801
15.1	1559.45	14.74
15.2	1560.06	14.7705
15.3	1563.42	14.801
15.4	1564.94	14.7705
15.5	1567.69	14.801
15.6	1565.55	14.7705
15.7	1567.38	14.7095
15.8	1567.69	14.679
15.9	1564.33	14.7705
16	1564.03	14.7705
16.1	1566.47	14.6484
16.2	1571.04	14.679
16.3	1576.84	14.7095
16.4	1576.54	14.7095
16.5	1575.93	14.679
16.6	1576.23	14.74
16.7	1581.12	14.74
16.8	1583.25	14.74
16.9	1579.9	14.74
17	1582.95	14.74
17.1	1588.44	14.74
17.2	1591.8	14.74
17.3	1588.44	14.7095
17.4	1579.28	14.6179
17.5	1571.04	14.6179
17.6	1567.69	14.7095
17.7	1567.38	14.679
17.8	1571.66	14.6179
17.9	1575.62	14.7095
18	1570.74	14.7705
18.1	1568.91	14.7705
18.2	1569.82	14.801
18.3	1562.81	14.801
18.4	1556.4	14.7705
18.5	1559.75	14.7705
18.6	1567.38	14.801
18.7	1566.77	14.7095
18.8	1555.48	14.74
18.9	1547.85	14.7705
19	1546.63	14.74
19.1	1546.02	14.7705
19.2	1550.29	14.7705
19.3	1559.75	14.74
19.4	1571.35	14.801
19.5	1579.9	14.801
19.6	1577.15	14.74
19.7	1571.66	14.679
19.8	1569.21	14.7095
19.9	1567.99	14.679
20	1563.72	9.67407
20.1	1547.55	9.67407
20.2	1370.24	9.61304
20.3	1136.78	9.67407
20.4	1095.28	9.70459
20.5	1112.37	9.64355
20.6	1119.38	9.61304
20.7	1123.66	9.67407
20.8	1128.23	9.67407
20.9	1130.37	9.73511
21	1130.68	9.82666
21.1	1131.9	9.76563
21.2	1135.86	9.76563
21.3	1138	9.79614
21.4	1139.53	9.67407
21.5	1139.53	9.67407
21.6	1142.58	9.61304
21.7	1145.02	9.61304
21.8	1145.94	9.64355
21.9	1147.77	9.61304
22	1148.99	9.67407
22.1	1147.16	9.76563
22.2	1147.16	9.79614
22.3	1149.6	9.76563
22.4	1152.95	9.76563
22.5	1153.26	9.76563
22.6	1150.21	9.58252
22.7	1150.51	9.73511
22.8	1151.73	9.82666
22.9	1151.73	9.73511
23	1151.12	9.73511
23.1	1153.56	9.64355
23.2	1158.14	9.58252
23.3	1163.02	9.67407
23.4	1167.6	9.64355
23.5	1170.65	9.70459
23.6	1172.18	9.79614
23.7	1172.79	9.79614
23.8	1176.45	9.70459
23.9	1179.5	9.64355
24	1176.15	9.61304
24.1	1176.76	9.64355
24.2	1184.08	9.70459
24.3	1188.35	9.73511
24.4	1186.22	9.76563
24.5	1184.69	9.76563
24.6	1185.3	9.73511
24.7	1185	9.70459
24.8	1181.34	9.82666
24.9	1178.89	9.73511
25	1177.98	9.73511
25.1	1175.23	9.79614
25.2	1173.1	9.73511
25.3	1171.88	9.82666
25.4	1172.79	9.67407
25.5	1174.93	9.61304
25.6	1175.23	9.67407
25.7	1174.32	9.70459
25.8	1177.06	9.67407
25.9	1183.17	9.76563
26	1183.47	9.76563
26.1	1181.64	9.73511
26.2	1188.05	9.79614
26.3	1194.76	9.76563
26.4	1193.85	9.76563
26.5	1192.32	9.79614
26.6	1192.02	9.70459
26.7	1188.96	9.73511
26.8	1187.44	9.79614
26.9	1189.27	9.70459
27	1188.05	9.79614
27.1	1186.22	9.82666
27.2	1182.25	9.73511
27.3	1178.89	9.76563
27.4	1182.25	9.76563
27.5	1187.44	9.73511
27.6	1186.83	9.82666
27.7	1184.08	9.76563
27.8	1182.25	9.73511
27.9	1183.47	9.64355
28	1183.78	9.67407
28.1	1182.25	9.67407
28.2	1183.47	9.79614
28.3	1186.22	9.76563
28.4	1186.83	9.76563
28.5	1181.64	9.76563
28.6	1181.03	9.73511
28.7	1182.25	9.73511
28.8	1181.95	9.70459
28.9	1182.86	9.67407
29	1187.13	9.70459
29.1	1191.41	9.70459
29.2	1194.76	9.70459
29.3	1192.32	9.76563
29.4	1189.88	9.79614
29.5	1190.8	9.73511
29.6	1189.27	9.73511
29.7	1184.39	9.79614
29.8	1183.17	9.73511
29.9	1185.91	9.79614
30	1185.91	9.82666
30.1	1186.22	9.79614
30.2	1182.56	4.82178
30.3	1096.5	4.82178
30.4	808.105	4.79126
30.5	653.992	4.73022
30.6	654.602	4.76074
30.7	656.433	4.76074
30.8	657.349	4.73022
30.9	661.316	4.73022
31	665.283	4.69971
31.1	665.283	4.63867
31.2	663.147	4.66919
31.3	663.452	4.63867
31.4	664.368	4.66919
31.5	666.199	4.66919
31.6	667.725	4.66919
31.7	668.945	4.63867
31.8	669.556	4.69971
31.9	668.64	4.73022
32	668.64	4.76074
32.1	670.166	4.82178
32.2	671.082	4.79126
32.3	671.692	4.79126
32.4	671.387	4.82178
32.5	669.861	4.82178
32.6	671.692	4.76074
32.7	673.828	4.79126
32.8	673.828	4.82178
32.9	675.659	4.73022
33	677.185	4.69971
33.1	675.964	4.76074
33.2	675.354	4.76074
33.3	674.744	4.69971
33.4	674.744	4.69971
33.5	674.744	4.76074
33.6	675.354	4.63867
33.7	673.828	4.82178
33.8	672.607	4.79126
33.9	673.828	4.66919
34	673.523	4.69971
34.1	673.523	4.73022
34.2	674.438	4.79126
34.3	674.744	4.82178
34.4	675.049	4.82178
34.5	674.744	4.82178
34.6	673.218	4.79126
34.7	670.776	4.73022
34.8	671.997	4.73022
34.9	674.133	4.76074
35	674.438	4.66919
35.1	673.218	4.69971
35.2	674.438	4.76074
35.3	676.88	4.69971
35.4	675.049	4.69971
35.5	672.607	4.79126
35.6	675.354	4.73022
35.7	677.795	4.82178
35.8	678.101	4.85229
35.9	676.575	4.79126
36	675.354	4.76074
36.1	677.185	4.66919
36.2	679.626	4.76074
36.3	678.101	4.69971
36.4	676.88	4.66919
36.5	677.185	4.76074
36.6	678.101	4.76074
36.7	678.406	4.76074
36.8	677.185	4.66919
36.9	674.744	4.66919
37	671.997	4.66919
37.1	670.166	4.82178
37.2	671.387	4.79126
37.3	671.692	4.76074
37.4	672.302	4.69971
37.5	673.218	4.63867
37.6	673.218	4.79126
37.7	673.523	4.79126
37.8	673.523	4.76074
37.9	671.997	4.79126
38	673.828	4.79126
38.1	677.49	4.66919
38.2	677.795	4.82178
38.3	676.575	4.79126
38.4	675.659	4.69971
38.5	673.218	4.66919
38.6	674.744	4.69971
38.7	679.016	4.66919
38.8	677.795	4.63867
38.9	675.964	4.69971
39	676.575	4.66919
39.1	677.185	4.69971
39.2	678.406	4.69971
39.3	678.101	4.82178
39.4	677.49	4.73022
39.5	676.575	4.82178
39.6	676.27	4.73022
39.7	677.795	4.63867
39.8	680.847	4.76074
39.9	680.237	4.73022
40	678.406	4.79126
40.1	675.964	4.63867
40.2	675.049	-0.366211
40.3	664.673	-0.244141
40.4	471.191	-0.213623
40.5	169.983	-0.244141
40.6	90.0269	-0.305176
40.7	94.9097	-0.366211
40.8	92.1631	-0.244141
40.9	92.4683	-0.152588
41	93.0786	-0.244141
41.1	92.7734	-0.305176
41.2	92.4683	-0.305176
41.3	92.1631	-0.213623
41.4	91.5527	-0.244141
41.5	92.1631	-0.152588
41.6	93.0786	-0.152588
41.7	93.3838	-0.213623
41.8	93.3838	-0.244141
41.9	93.689	-0.305176
42	93.0786	-0.366211
42.1	92.4683	-0.244141
42.2	93.0786	-0.244141
42.3	93.3838	-0.244141
42.4	93.0786	-0.213623
42.5	92.7734	-0.183105
42.6	93.0786	-0.244141
42.7	93.689	-0.183105
42.8	93.3838	-0.183105
42.9	93.689	-0.183105
43	93.3838	-0.183105
43.1	93.3838	-0.183105
43.2	93.9941	-0.213623
43.3	93.689	-0.152588
43.4	93.689	-0.183105
43.5	93.689	-0.366211
43.6	93.3838	-0.274658
43.7	93.0786	-0.244141
43.8	93.0786	-0.274658
43.9	93.689	-0.183105
44	93.3838	-0.183105
44.1	93.3838	-0.244141
44.2	93.0786	-0.213623
44.3	93.3838	-0.244141
44.4	93.689	-0.244141
44.5	93.3838	-0.244141
44.6	93.689	-0.305176
44.7	93.689	-0.396729
44.8	93.0786	-0.274658
44.9	93.0786	-0.213623
45	93.3838	-0.244141
45.1	92.7734	-0.183105
45.2	93.0786	-0.244141
45.3	93.689	-0.335693
45.4	93.689	-0.305176
45.5	93.689	-0.213623
45.6	93.9941	-0.244141
45.7	93.689	-0.183105
45.8	93.9941	-0.213623
45.9	93.9941	-0.396729
46	93.9941	-0.274658
46.1	94.2993	-0.274658
46.2	93.9941	-0.305176
46.3	93.9941	-0.183105
46.4	93.689	-0.183105
46.5	93.3838	-0.213623
46.6	93.9941	-0.183105
46.7	93.9941	-0.183105
46.8	93.9941	-0.213623
46.9	93.689	-0.152588
47	93.9941	-0.213623
47.1	93.9941	-0.213623
47.2	93.9941	-0.305176
47.3	93.9941	-0.274658
47.4	93.689	-0.183105
47.5	93.3838	-0.152588
47.6	93.689	-0.213623
47.7	93.9941	-0.244141
47.8	93.9941	-0.335693
47.9	93.689	-0.366211
48	93.689	-0.244141
48.1	93.9941	-0.213623
48.2	94.2993	-0.183105
48.3	94.2993	-0.183105
48.4	94.2993	-0.213623
48.5	94.2993	-0.152588
48.6	94.2993	-0.213623
48.7	93.9941	-0.213623
48.8	94.2993	-0.213623
48.9	93.9941	-0.244141
49	93.9941	-0.183105
49.1	94.2993	-0.244141
49.2	94.6045	-0.213623
49.3	94.2993	-0.244141
49.4	94.2993	-0.274658
49.5	94.2993	-0.305176
49.6	94.2993	-0.396729
49.7	94.2993	-0.244141
49.8	94.6045	-0.183105
49.9	93.9941	-0.274658
50	93.9941	-0.335693
50.1	94.2993	-0.244141
50.2	93.9941	-5.15747
50.3	74.1577	-5.18799
50.4	-156.86	-5.31006
50.5	-450.134	-5.24902
50.6	-512.39	-5.21851
50.7	-508.423	-5.12695
50.8	-511.475	-5.24902
50.9	-511.169	-5.27954
51	-510.559	-5.27954
51.1	-510.254	-5.15747
51.2	-509.644	-5.15747
51.3	-509.949	-5.18799
51.4	-510.254	-5.15747
51.5	-511.169	-5.27954
51.6	-511.169	-5.27954
51.7	-509.033	-5.31006
51.8	-508.728	-5.34058
51.9	-510.254	-5.24902
52	-510.864	-5.34058
52.1	-509.949	-5.24902
52.2	-509.338	-5.34058
52.3	-508.118	-5.27954
52.4	-507.507	-5.24902
52.5	-507.507	-5.37109
52.6	-508.728	-5.24902
52.7	-509.338	-5.31006
52.8	-509.338	-5.27954
52.9	-508.728	-5.18799
53	-507.813	-5.21851
53.1	-507.507	-5.18799
53.2	-508.423	-5.37109
53.3	-509.338	-5.27954
53.4	-509.949	-5.15747
53.5	-510.254	-5.24902
53.6	-510.559	-5.15747
53.7	-510.559	-5.15747
53.8	-509.949	-5.18799
53.9	-510.559	-5.15747
54	-510.864	-5.21851
54.1	-511.475	-5.15747
54.2	-512.085	-5.15747
54.3	-512.39	-5.21851
54.4	-512.695	-5.15747
54.5	-512.085	-5.15747
54.6	-512.39	-5.18799
54.7	-512.695	-5.18799
54.8	-513.306	-5.24902
54.9	-513.916	-5.18799
55	-513	-5.18799
55.1	-512.39	-5.18799
55.2	-511.78	-5.15747
55.3	-512.39	-5.15747
55.4	-513.611	-5.24902
55.5	-512.695	-5.18799
55.6	-511.475	-5.24902
55.7	-510.864	-5.27954
55.8	-509.949	-5.24902
55.9	-510.254	-5.37109
56	-509.949	-5.27954
56.1	-509.644	-5.21851
56.2	-510.559	-5.24902
56.3	-511.78	-5.12695
56.4	-511.475	-5.15747
56.5	-511.78	-5.18799
56.6	-510.559	-5.18799
56.7	-509.644	-5.27954
56.8	-509.033	-5.34058
56.9	-510.864	-5.24902
57	-511.78	-5.21851
57.1	-511.78	-5.18799
57.2	-510.559	-5.18799
57.3	-510.864	-5.34058
57.4	-510.864	-5.21851
57.5	-511.169	-5.15747
57.6	-510.559	-5.18799
57.7	-510.559	-5.15747
57.8	-511.169	-5.21851
57.9	-512.085	-5.24902
58	-513	-5.18799
58.1	-512.39	-5.24902
58.2	-511.169	-5.21851
58.3	-511.78	-5.21851
58.4	-512.39	-5.27954
58.5	-512.695	-5.24902
58.6	-512.39	-5.15747
58.7	-510.864	-5.18799
58.8	-508.728	-5.34058
58.9	-509.644	-5.18799
59	-510.864	-5.18799
59.1	-511.78	-5.18799
59.2	-511.78	-5.21851
59.3	-510.864	-5.34058
59.4	-511.475	-5.24902
59.5	-512.39	-5.18799
59.6	-512.085	-5.18799
59.7	-510.864	-5.27954
59.8	-510.254	-5.24902
59.9	-509.949	-5.24902
60	-511.475	-5.15747
60.1	-511.78	-10.1929
60.2	-526.428	-10.3455
60.3	-736.084	-10.1624
60.4	-1041.87	-10.1013
60.5	-1118.47	-10.2844
60.6	-1114.2	-10.2844
60.7	-1116.64	-10.1624
60.8	-1114.5	-10.1929
60.9	-1113.28	-10.2234
61	-1112.98	-10.2539
61.1	-1113.89	-10.1318
61.2	-1112.06	-10.2539
61.3	-1111.76	-10.2539
61.4	-1112.37	-10.1318
61.5	-1110.23	-10.2234
61.6	-1110.23	-10.0708
61.7	-1111.15	-10.1318
61.8	-1111.45	-10.1929
61.9	-1113.28	-10.1624
62	-1113.28	-10.1318
62.1	-1112.37	-10.1929
62.2	-1112.37	-10.3149
62.3	-1112.37	-10.1929
62.4	-1112.37	-10.2844
62.5	-1112.67	-10.2844
62.6	-1113.89	-10.1929
62.7	-1113.89	-10.1624
62.8	-1115.11	-10.1929
62.9	-1115.72	-10.2844
63	-1115.42	-10.1929
63.1	-1115.72	-10.1624
63.2	-1115.72	-10.1624
63.3	-1113.59	-10.1013
63.4	-1114.2	-10.1929
63.5	-1114.2	-10.2844
63.6	-1114.5	-10.2844
63.7	-1113.89	-10.2539
63.8	-1112.06	-10.3149
63.9	-1111.45	-10.2844
64	-1113.89	-10.2539
64.1	-1116.03	-10.2844
64.2	-1116.03	-10.2539
64.3	-1114.5	-10.1624
64.4	-1113.59	-10.1624
64.5	-1113.59	-10.1929
64.6	-1113.28	-10.2844
64.7	-1109.92	-10.2539
64.8	-1107.79	-10.2844
64.9	-1111.15	-10.2844
65	-1112.98	-10.2539
65.1	-1112.37	-10.2539
65.2	-1112.98	-10.2234
65.3	-1113.59	-10.2539
65.4	-1114.2	-10.1318
65.5	-1113.89	-10.1624
65.6	-1114.2	-10.1624
65.7	-1115.72	-10.1318
65.8	-1116.64	-10.1013
65.9	-1116.33	-10.1624
66	-1116.64	-10.1318
66.1	-1114.5	-10.1624
66.2	-1112.06	-10.2234
66.3	-1112.06	-10.2844
66.4	-1111.45	-10.2234
66.5	-1109.62	-10.1318
66.6	-1108.7	-10.1624
66.7	-1110.84	-10.3149
66.8	-1112.37	-10.2844
66.9	-1113.59	-10.2539
67	-1112.98	-10.2539
67.1	-1112.06	-10.2234
67.2	-1112.98	-10.1624
67.3	-1112.37	-10.1624
67.4	-1111.15	-10.1318
67.5	-1108.09	-10.1318
67.6	-1107.48	-10.1318
67.7	-1109.01	-10.1318
67.8	-1110.23	-10.1624
67.9	-1110.84	-10.1013
68	-1110.53	-10.1318
68.1	-1109.62	-10.1624
68.2	-1109.92	-10.1624
68.3	-1111.45	-10.1624
68.4	-1111.45	-10.2234
68.5	-1111.76	-10.2539
68.6	-1111.76	-10.2844
68.7	-1112.06	-10.2539
68.8	-1110.84	-10.2844
68.9	-1109.31	-10.2844
69	-1108.4	-10.2539
69.1	-1108.09	-10.1929
69.2	-1108.7	-10.2539
69.3	-1110.23	-10.1929
69.4	-1110.23	-10.2844
69.5	-1109.31	-10.3149
69.6	-1108.09	-10.3149
69.7	-1107.18	-10.1624
69.8	-1106.57	-10.1013
69.9	-1108.09	-10.1624
70	-1110.23	-10.1624
70.1	-1109.62	-10.1318
70.2	-1112.98	-15.1367
70.3	-1243.29	-15.2283
70.4	-1567.08	-15.2588
70.5	-1704.41	-15.2893
70.6	-1702.88	-15.3198
70.7	-1703.8	-15.2588
70.8	-1704.71	-15.2588
70.9	-1701.35	-15.2283
71	-1701.97	-15.2588
71.1	-1705.02	-15.2283
71.2	-1708.07	-15.1978
71.3	-1707.76	-15.1978
71.4	-1704.71	-15.1367
71.5	-1702.58	-15.1367
71.6	-1705.32	-15.1978
71.7	-1708.68	-15.1367
71.8	-1708.37	-15.1062
71.9	-1707.15	-15.1367
72	-1706.24	-15.1367
72.1	-1706.54	-15.1978
72.2	-1707.76	-15.2588
72.3	-1707.15	-15.2893
72.4	-1708.37	-15.2283
72.5	-1708.37	-15.1672
72.6	-1706.85	-15.1978
72.7	-1705.93	-15.1062
72.8	-1705.63	-15.1062
72.9	-1703.8	-15.1672
73	-1705.02	-15.1367
73.1	-1709.59	-15.1367
73.2	-1708.07	-15.1367
73.3	-1704.71	-15.1367
73.4	-1705.02	-15.0452
73.5	-1706.24	-15.1672
73.6	-1705.02	-15.1978
73.7	-1705.63	-15.1672
73.8	-1703.49	-15.1978
73.9	-1705.63	-15.1978
74	-1706.85	-15.1367
74.1	-1705.02	-15.1062
74.2	-1703.19	-15.1672
74.3	-1702.58	-15.1062
74.4	-1703.19	-15.1367
74.5	-1705.63	-15.1978
74.6	-1708.37	-15.2588
74.7	-1708.98	-15.2893
74.8	-1707.15	-15.2588
74.9	-1706.85	-15.2283
75	-1706.24	-15.1978
75.1	-1705.02	-15.1367
75.2	-1708.07	-15.3198
75.3	-1708.37	-15.1978
75.4	-1708.37	-15.1672
75.5	-1708.07	-15.1978
75.6	-1706.24	-15.1062
75.7	-1703.49	-15.1062
75.8	-1700.74	-15.2283
75.9	-1700.74	-15.2588
76	-1702.58	-15.1367
76.1	-1704.1	-15.1367
76.2	-1703.19	-15.1978
76.3	-1703.8	-15.2588
76.4	-1702.88	-15.3198
76.5	-1703.19	-15.2588
76.6	-1704.71	-15.1978
76.7	-1705.02	-15.1367
76.8	-1704.71	-15.0757
76.9	-1704.71	-15.1367
77	-1705.63	-15.1672
77.1	-1704.71	-15.1062
77.2	-1701.35	-15.1367
77.3	-1699.83	-15.2283
77.4	-1699.83	-15.1978
77.5	-1701.66	-15.1672
77.6	-1701.66	-15.2588
77.7	-1699.83	-15.2588
77.8	-1699.83	-15.2588
77.9	-1702.88	-15.1978
78	-1702.88	-15.1672
78.1	-1704.71	-15.1062
78.2	-1707.76	-15.1367
78.3	-1708.98	-15.1672
78.4	-1707.15	-15.1672
78.5	-1702.88	-15.2283
78.6	-1699.83	-15.2588
78.7	-1699.52	-15.2283
78.8	-1699.22	-15.2893
78.9	-1699.83	-15.3503
79	-1699.83	-15.1978
79.1	-1700.44	-15.2893
79.2	-1701.66	-15.2893
79.3	-1701.05	-15.1062
79.4	-1704.1	-15.1367
79.5	-1707.46	-15.1672
79.6	-1709.9	-15.1672
79.7	-1710.21	-15.2893
79.8	-1710.21	-15.1672
79.9	-1707.46	-15.1367
80	-1705.02	-15.2283
80.1	-1704.71	-15.2283
80.2	-1705.63	-20.2942
80.3	-1771.24	-20.3247
80.4	-2069.4	-20.2637
80.5	-2275.39	-20.1416
80.6	-2286.68	-20.1416
80.7	-2280.27	-20.1416
80.8	-2280.88	-20.1416
80.9	-2283.33	-20.1416
81	-2283.94	-20.1416
81.1	-2285.16	-20.1111
81.2	-2284.55	-20.1721
81.3	-2286.99	-20.1111
81.4	-2287.9	-20.1111
81.5	-2283.63	-20.1721
81.6	-2283.63	-20.1416
81.7	-2286.68	-20.1416
81.8	-2288.51	-20.2026
81.9	-2288.21	-20.2026
82	-2289.73	-20.2026
82.1	-2291.26	-20.2332
82.2	-2290.65	-20.2026
82.3	-2291.87	-20.2637
82.4	-2289.43	-20.2026
82.5	-2288.51	-20.2942
82.6	-2291.56	-20.2332
82.7	-2293.4	-20.2637
82.8	-2292.18	-20.2637
82.9	-2290.04	-20.2332
83	-2287.29	-20.1721
83.1	-2288.82	-20.1721
83.2	-2287.29	-20.2026
83.3	-2286.68	-20.1721
83.4	-2285.46	-20.2332
83.5	-2284.85	-20.1721
83.6	-2286.68	-20.1416
83.7	-2287.9	-20.2026
83.8	-2287.9	-20.1416
83.9	-2286.99	-20.2637
84	-2289.12	-20.2942
84.1	-2287.29	-20.2637
84.2	-2283.33	-20.1111
84.3	-2282.71	-20.1416
84.4	-2283.02	-20.2026
84.5	-2285.16	-20.2332
84.6	-2286.68	-20.2637
84.7	-2288.82	-20.2637
84.8	-2289.12	-20.1721
84.9	-2289.43	-20.1416
85	-2286.07	-20.1416
85.1	-2286.38	-20.2026
85.2	-2287.9	-20.2637
85.3	-2286.38	-20.3247
85.4	-2284.85	-20.2637
85.5	-2283.63	-20.2637
85.6	-2284.24	-20.2332
85.7	-2282.41	-20.1416
85.8	-2281.49	-20.1111
85.9	-2280.88	-20.2026
86	-2279.97	-20.2332
86.1	-2279.97	-20.2942
86.2	-2280.58	-20.2332
86.3	-2281.8	-20.2637
86.4	-2280.88	-20.1721
86.5	-2280.58	-20.1721
86.6	-2282.41	-20.1416
86.7	-2284.24	-20.1416
86.8	-2281.8	-20.1416
86.9	-2282.1	-20.1111
87	-2280.88	-20.2026
87.1	-2280.58	-20.2026
87.2	-2283.63	-20.2332
87.3	-2280.58	-20.3247
87.4	-2274.78	-20.1721
87.5	-2271.73	-20.1416
87.6	-2272.03	-20.1416
87.7	-2272.03	-20.1416
87.8	-2275.09	-20.0806
87.9	-2280.58	-20.1111
88	-2282.1	-20.2332
88.1	-2282.71	-20.1416
88.2	-2285.77	-20.1721
88.3	-2286.38	-20.1416
88.4	-2285.46	-20.1721
88.5	-2283.33	-20.1416
88.6	-2283.02	-20.1721
88.7	-2285.16	-20.1721
88.8	-2285.46	-20.1721
88.9	-2284.55	-20.1111
89	-2279.05	-20.1416
89.1	-2273.56	-20.1721
89.2	-2276	-20.1111
89.3	-2278.14	-20.1416
89.4	-2273.86	-20.2026
89.5	-2270.51	-20.1721
89.6	-2272.64	-20.1721
89.7	-2271.73	-20.2637
89.8	-2272.03	-20.2942
89.9	-2274.78	-20.2332
90	-2279.05	-20.1721
90.1	-2282.1	-20.2026
90.2	-2281.8	-25.2991
90.3	-2305.3	-25.2686
90.4	-2543.95	-25.238
90.5	-2809.45	-25.2991
90.6	-2855.53	-25.2686
90.7	-2853.09	-25.2075
90.8	-2858.89	-25.2075
90.9	-2857.06	-25.1465
91	-2855.83	-25.177
91.1	-2853.7	-25.238
91.2	-2851.56	-25.2686
91.3	-2852.78	-25.238
91.4	-2854.31	-25.177
91.5	-2855.83	-25.1465
91.6	-2860.72	-25.177
91.7	-2858.28	-25.177
91.8	-2851.56	-25.116
91.9	-2847.6	-25.0854
92	-2847.9	-25.116
92.1	-2852.78	-25.2075
92.2	-2854.92	-25.2075
92.3	-2852.78	-25.238
92.4	-2851.87	-25.3296
92.5	-2854.92	-25.2686
92.6	-2854.31	-25.238
92.7	-2850.65	-25.238
92.8	-2850.65	-25.2686
92.9	-2849.12	-25.177
93	-2849.12	-25.177
93.1	-2850.65	-25.177
93.2	-2850.04	-25.1465
93.3	-2850.04	-25.116
93.4	-2847.29	-25.116
93.5	-2844.54	-25.177
93.6	-2840.88	-25.238
93.7	-2838.75	-25.2075
93.8	-2844.24	-25.2991
93.9	-2849.43	-25.2991
94	-2848.21	-25.177
94.1	-2846.37	-25.116
94.2	-2843.02	-25.2991
94.3	-2842.1	-25.2686
94.4	-2846.98	-25.1465
94.5	-2852.48	-25.2075
94.6	-2853.39	-25.1465
94.7	-2855.53	-25.177
94.8	-2857.06	-25.2686
94.9	-2856.75	-25.2686
95	-2857.67	-25.177
95.1	-2860.41	-25.1465
95.2	-2856.75	-25.1465
95.3	-2850.95	-25.1465
95.4	-2853.39	-25.0854
95.5	-2855.83	-25.177
95.6	-2853.7	-25.238
95.7	-2854.61	-25.2075
95.8	-2857.97	-25.238
95.9	-2858.58	-25.2991
96	-2857.06	-25.238
96.1	-2860.11	-25.177
96.2	-2858.89	-25.2991
96.3	-2855.83	-25.177
96.4	-2855.83	-25.2686
96.5	-2857.36	-25.2686
96.6	-2857.06	-25.2686
96.7	-2854.92	-25.177
96.8	-2851.56	-25.116
96.9	-2850.95	-25.177
97	-2853.39	-25.177
97.1	-2858.89	-25.238
97.2	-2862.24	-25.2686
97.3	-2862.55	-25.238
97.4	-2857.97	-25.2686
97.5	-2852.48	-25.2686
97.6	-2851.56	-25.2075
97.7	-2856.75	-25.238
97.8	-2860.11	-25.1465
97.9	-2857.97	-25.0854
98	-2857.97	-25.1465
98.1	-2859.8	-25.1465
98.2	-2863.77	-25.1465
98.3	-2865.3	-25.238
98.4	-2861.33	-25.2991
98.5	-2858.89	-25.2075
98.6	-2860.72	-25.2075
98.7	-2862.55	-25.177
98.8	-2860.72	-25.0549
98.9	-2859.5	-25.1465
99	-2859.5	-25.238
99.1	-2858.89	-25.238
99.2	-2860.41	-25.2686
99.3	-2861.02	-25.3601
99.4	-2861.02	-25.238
99.5	-2860.11	-25.238
99.6	-2860.11	-25.3296
99.7	-2861.02	-25.177
99.8	-2862.85	-25.1465
99.9	-2864.07	-25.177
100	-2860.11	-25.116
100.1	-2857.97	-30.2734
100.2	-2876.59	-30.2124
100.3	-3085.63	-30.1208
100.4	-3356.63	-30.1514
100.5	-3416.14	-30.2429
100.6	-3415.22	-30.1514
100.7	-3422.85	-30.0903
100.8	-3425.6	-30.2429
100.9	-3427.12	-30.1514
101	-3423.46	-30.0903
101.1	-3415.53	-30.1208
101.2	-3408.81	-30.1514
101.3	-3406.68	-30.2429
101.4	-3407.59	-30.2734
101.5	-3410.34	-30.2429
101.6	-3413.39	-30.0903
101.7	-3408.81	-30.1208
101.8	-3408.51	-30.1514
101.9	-3411.25	-30.0903
102	-3410.64	-30.1514
102.1	-3410.64	-30.2734
102.2	-3414.92	-30.2734
102.3	-3417.97	-30.2429
102.4	-3414.92	-30.2429
102.5	-3412.78	-30.2734
102.6	-3408.2	-30.2124
102.7	-3408.81	-30.2429
102.8	-3410.95	-30.2734
102.9	-3409.42	-30.2124
103	-3408.81	-30.2734
103.1	-3405.46	-30.2429
103.2	-3403.63	-30.2124
103.3	-3404.54	-30.2124
103.4	-3400.57	-30.2734
103.5	-3398.44	-30.2429
103.6	-3397.83	-30.2124
103.7	-3395.69	-30.2734
103.8	-3394.78	-30.2429
103.9	-3394.78	-30.2124
104	-3394.78	-30.2124
104.1	-3395.39	-30.1514
104.2	-3396.91	-30.0598
104.3	-3397.22	-30.0903
104.4	-3396.61	-30.2124
104.5	-3398.13	-30.2734
104.6	-3400.88	-30.2429
104.7	-3408.2	-30.1819
104.8	-3413.39	-30.1208
104.9	-3411.87	-30.0598
105	-3410.34	-30.1208
105.1	-3407.59	-30.1819
105.2	-3405.46	-30.2124
105.3	-3401.79	-30.2124
105.4	-3399.66	-30.2124
105.5	-3401.18	-30.1208
105.6	-3401.49	-30.0598
105.7	-3403.93	-30.0903
105.8	-3408.51	-30.1819
105.9	-3406.37	-30.1208
106	-3401.49	-30.1208
106.1	-3403.02	-30.1819
106.2	-3405.46	-30.2124
106.3	-3405.76	-30.2124
106.4	-3406.98	-30.2734
106.5	-3404.85	-30.2734
106.6	-3398.74	-30.2429
106.7	-3393.86	-30.2734
106.8	-3395.39	-30.304
106.9	-3400.57	-30.2124
107	-3403.93	-30.1819
107.1	-3407.59	-30.1208
107.2	-3406.07	-30.1514
107.3	-3402.4	-30.0903
107.4	-3404.24	-30.0903
107.5	-3403.63	-30.1208
107.6	-3400.88	-30.1208
107.7	-3405.46	-30.1208
107.8	-3410.34	-30.2124
107.9	-3406.68	-30.2429
108	-3403.02	-30.1819
108.1	-3401.49	-30.2429
108.2	-3401.79	-30.2124
108.3	-3399.96	-30.2429
108.4	-3394.47	-30.1514
108.5	-3391.42	-30.1514
108.6	-3396.3	-30.0903
108.7	-3399.96	-30.1514
108.8	-3398.74	-30.1208
108.9	-3395.39	-30.1819
109	-3393.55	-30.2124
109.1	-3397.22	-30.304
109.2	-3401.18	-30.2429
109.3	-3399.66	-30.1514
109.4	-3393.25	-30.0598
109.5	-3384.7	-30.1819
109.6	-3384.4	-30.2429
109.7	-3385.62	-30.2124
109.8	-3387.15	-30.1514
109.9	-3390.2	-30.1819
110	-3393.86	-30.1514
110.1	-3396.91	-35.0647
110.2	-3403.93	-35.1257
110.3	-3577.27	-35.2478
110.4	-3860.78	-35.2478
110.5	-3944.4	-35.0952
110.6	-3943.48	-35.0647
110.7	-3945.01	-35.1257
110.8	-3938.9	-35.2173
110.9	-3936.77	-35.1563
111	-3943.18	-35.0952
111.1	-3944.7	-35.1563
111.2	-3940.73	-35.2478
111.3	-3934.94	-35.2173
111.4	-3937.07	-35.2173
111.5	-3939.51	-35.1868
111.6	-3937.99	-35.1868
111.7	-3939.21	-35.0647
111.8	-3941.65	-35.0952
111.9	-3939.82	-35.1868
112	-3939.82	-35.2783
112.1	-3944.4	-35.1868
112.2	-3948.36	-35.0952
112.3	-3945.92	-35.1563
112.4	-3943.79	-35.1868
112.5	-3941.35	-35.2173
112.6	-3934.63	-35.2173
112.7	-3930.05	-35.2478
112.8	-3925.48	-35.2478
112.9	-3923.03	-35.1868
113	-3919.68	-35.0647
113.1	-3920.59	-35.1868
113.2	-3928.53	-35.1257
113.3	-3934.33	-35.0647
113.4	-3941.65	-35.1257
113.5	-3945.62	-35.1257
113.6	-3942.87	-35.0647
113.7	-3940.43	-35.0952
113.8	-3941.96	-35.0952
113.9	-3938.9	-35.1257
114	-3937.68	-35.0952
114.1	-3937.68	-35.1563
114.2	-3931.88	-35.1868
114.3	-3927.31	-35.1868
114.4	-3931.58	-35.1868
114.5	-3932.19	-35.2478
114.6	-3925.78	-35.1563
114.7	-3923.95	-35.1257
114.8	-3927.61	-35.1563
114.9	-3925.78	-35.1257
115	-3926.09	-35.0952
115.1	-3924.87	-35.0952
115.2	-3922.12	-35.1868
115.3	-3925.48	-35.1257
115.4	-3927	-35.0647
115.5	-3932.8	-35.1868
115.6	-3932.19	-35.2173
115.7	-3931.58	-35.2173
115.8	-3933.41	-35.2478
115.9	-3933.72	-35.0952
116	-3932.8	-35.0952
116.1	-3924.56	-35.1257
116.2	-3924.56	-35.1868
116.3	-3932.5	-35.2173
116.4	-3935.24	-35.2783
116.5	-3933.41	-35.2173
116.6	-3932.8	-35.1257
116.7	-3934.63	-35.1257
116.8	-3935.55	-35.2478
116.9	-3937.07	-35.1868
117	-3934.63	-35.1868
117.1	-3931.58	-35.1257
117.2	-3934.63	-35.0952
117.3	-3940.43	-35.0952
117.4	-3940.12	-35.1868
117.5	-3938.29	-35.1868
117.6	-3938.29	-35.2478
117.7	-3937.99	-35.2783
117.8	-3941.35	-35.1257
117.9	-3939.21	-35.1257
118	-3930.36	-35.1257
118.1	-3927	-35.0952
118.2	-3927.31	-35.1563
118.3	-3931.27	-35.1257
118.4	-3936.46	-35.0952
118.5	-3939.82	-35.1563
118.6	-3934.63	-35.0647
118.7	-3929.14	-35.0647
118.8	-3928.53	-35.1563
118.9	-3929.75	-35.2173
119	-3930.36	-35.1563
119.1	-3926.39	-35.2783
119.2	-3924.26	-35.2173
119.3	-3927.31	-35.2173
119.4	-3933.72	-35.1868
119.5	-3932.19	-35.1257
119.6	-3928.53	-35.2173
119.7	-3922.42	-35.2783
119.8	-3913.27	-35.1868
119.9	-3914.18	-35.1563
120	-3917.85	-35.1868
120.1	-3921.2	-40.1306
120.2	-3944.7	-40.1306
120.3	-4154.05	-40.1306
120.4	-4416.5	-40.0696
120.5	-4468.99	-40.1001
120.6	-4462.89	-40.1611
120.7	-4465.33	-40.1001
120.8	-4460.14	-40.1306
120.9	-4458.01	-40.1611
121	-4460.75	-40.2222
121.1	-4459.84	-40.2222
121.2	-4458.01	-40.1001
121.3	-4453.74	-40.1306
121.4	-4450.38	-40.1917
121.5	-4449.77	-40.2222
121.6	-4455.26	-40.2527
121.7	-4453.74	-40.1306
121.8	-4453.43	-40.1001
121.9	-4452.51	-40.1001
122	-4449.16	-40.1306
122.1	-4453.13	-40.1001
122.2	-4463.2	-40.1001
122.3	-4468.08	-40.1611
122.4	-4467.16	-40.0696
122.5	-4462.89	-40.1001
122.6	-4457.4	-40.2222
122.7	-4459.23	-40.1917
122.8	-4460.75	-40.2527
122.9	-4464.72	-40.2832
123	-4469.6	-40.2222
123.1	-4470.52	-40.1917
123.2	-4468.38	-40.1917
123.3	-4462.89	-40.1917
123.4	-4456.48	-40.1917
123.5	-4455.57	-40.2222
123.6	-4461.36	-40.2222
123.7	-4466.25	-40.2832
123.8	-4465.64	-40.2222
123.9	-4470.83	-40.2527
124	-4471.13	-40.2832
124.1	-4465.33	-40.2222
124.2	-4462.59	-40.2222
124.3	-4465.03	-40.2222
124.4	-4466.25	-40.1306
124.5	-4472.05	-40.1306
124.6	-4473.27	-40.1611
124.7	-4473.27	-40.1001
124.8	-4471.44	-40.1611
124.9	-4473.57	-40.2832
125	-4478.45	-40.1611
125.1	-4479.37	-40.1306
125.2	-4477.54	-40.2222
125.3	-4475.71	-40.1611
125.4	-4480.29	-40.1611
125.5	-4479.37	-40.1611
125.6	-4472.66	-40.2222
125.7	-4468.69	-40.1917
125.8	-4472.35	-40.1001
125.9	-4477.23	-40.1306
126	-4476.93	-40.2222
126.1	-4473.88	-40.2527
126.2	-4468.38	-40.1306
126.3	-4470.21	-40.1306
126.4	-4473.27	-40.1001
126.5	-4480.9	-40.1611
126.6	-4488.22	-40.3137
126.7	-4487.3	-40.1611
126.8	-4477.84	-40.0696
126.9	-4475.4	-40.1917
127	-4477.54	-40.1917
127.1	-4479.37	-40.1611
127.2	-4476.93	-40.1306
127.3	-4476.32	-40.2222
127.4	-4475.1	-40.1306
127.5	-4473.88	-40.1917
127.6	-4471.74	-40.2527
127.7	-4472.96	-40.1306
127.8	-4468.08	-40.1611
127.9	-4463.2	-40.1306
128	-4464.11	-40.2527
128.1	-4459.84	-40.2832
128.2	-4461.98	-40.0696
128.3	-4465.03	-40.1306
128.4	-4465.03	-40.2222
128.5	-4464.42	-40.2527
128.6	-4458.31	-40.2222
128.7	-4450.68	-40.1917
128.8	-4445.8	-40.1001
128.9	-4449.46	-40.0696
129	-4450.38	-40.1611
129.1	-4453.43	-40.1306
129.2	-4453.74	-40.1306
129.3	-4447.02	-40.1917
129.4	-4443.97	-40.1611
129.5	-4452.51	-40.2527
129.6	-4463.2	-40.1306
129.7	-4471.44	-40.1306
129.8	-4475.71	-40.1306
129.9	-4475.71	-40.1611
130	-4470.83	-40.2527
130.1	-4469.3	-40.1917
130.2	-4477.23	-40.1306
130.3	-4479.37	-45.105
130.4	-4499.82	-45.0745
130.5	-4717.41	-45.0745
130.6	-4948.73	-45.2271
130.7	-4983.52	-45.2271
130.8	-4976.2	-45.105
130.9	-4975.28	-45.0745
131	-4966.13	-45.166
131.1	-4968.87	-45.0745
131.2	-4977.42	-45.1355
131.3	-4980.47	-45.0745
131.4	-4978.64	-45.105
131.5	-4975.59	-45.1355
131.6	-4976.81	-45.1965
131.7	-4975.89	-45.2576
131.8	-4979.86	-45.2271
131.9	-4985.35	-45.1965
132	-4983.83	-45.166
132.1	-4981.08	-45.0745
132.2	-4982.6	-45.0745
132.3	-4979.25	-45.0745
132.4	-4983.83	-45.1355
132.5	-4989.32	-45.105
132.6	-4986.57	-45.1355
132.7	-4983.22	-45.2576
132.8	-4981.99	-45.166
132.9	-4982.6	-45.1965
133	-4976.81	-45.1965
133.1	-4970.7	-45.105
133.2	-4974.98	-45.105
133.3	-4985.05	-45.0745
133.4	-4990.23	-45.166
133.5	-4991.46	-45.0439
133.6	-4989.93	-45.0439
133.7	-4992.98	-45.105
133.8	-4996.34	-45.1355
133.9	-4997.56	-45.166
134	-4990.23	-45.2271
134.1	-4979.55	-45.1965
134.2	-4976.2	-45.105
134.3	-4982.6	-45.0745
134.4	-4989.62	-45.105
134.5	-4993.29	-45.0745
134.6	-4997.25	-45.0745
134.7	-5006.71	-45.105
134.8	-5007.63	-45.166
134.9	-4998.47	-45.105
135	-4993.59	-45.166
135.1	-4997.86	-45.3186
135.2	-5000.31	-45.2576
135.3	-5003.97	-45.105
135.4	-5003.97	-45.0745
135.5	-5006.71	-45.1355
135.6	-5007.02	-45.0745
135.7	-5006.41	-45.1355
135.8	-5006.41	-45.1965
135.9	-5012.82	-45.1355
136	-5012.82	-45.166
136.1	-5003.36	-45.2271
136.2	-5001.53	-45.2576
136.3	-5000.61	-45.2271
136.4	-4993.29	-45.166
136.5	-4987.18	-45.1965
136.6	-4990.23	-45.2271
136.7	-4995.73	-45.166
136.8	-5001.83	-45.2271
136.9	-5000.61	-45.2271
137	-4996.64	-45.1965
137.1	-4996.03	-45.2271
137.2	-4997.25	-45.2271
137.3	-4992.98	-45.2271
137.4	-4992.37	-45.1965
137.5	-4992.68	-45.2271
137.6	-4988.4	-45.2576
137.7	-4992.37	-45.1965
137.8	-4999.08	-45.1355
137.9	-5000	-45.1965
138	-5000	-45.1355
138.1	-4995.12	-45.0745
138.2	-4989.62	-45.0745
138.3	-4987.79	-45.105
138.4	-4995.12	-45.0439
138.5	-4995.73	-45.105
138.6	-4997.86	-45.2576
138.7	-5003.66	-45.2576
138.8	-4999.08	-45.1355
138.9	-4991.15	-45.105
139	-4989.32	-45.1355
139.1	-4993.9	-45.0745
139.2	-4993.59	-45.105
139.3	-4985.05	-45.0745
139.4	-4980.77	-45.105
139.5	-4979.86	-45.0439
139.6	-4983.83	-45.0745
139.7	-4992.07	-45.1355
139.8	-4990.54	-45.105
139.9	-4986.88	-45.2576
140	-4992.07	-45.2271
140.1	-4998.78	-50.2319
140.2	-5036.93	-50.2319
140.3	-5280.76	-50.1709
140.4	-5489.5	-50.2625
140.5	-5513.31	-50.2319
140.6	-5510.86	-50.2319
140.7	-5505.68	-50.2319
140.8	-5502.93	-50.2319
140.9	-5508.42	-50.1404
141	-5510.56	-50.1709
141.1	-5504.76	-50.2014
141.2	-5492.25	-50.1709
141.3	-5490.42	-50.1709
141.4	-5492.55	-50.2014
141.5	-5494.69	-50.2319
141.6	-5493.47	-50.1709
141.7	-5489.81	-50.2014
141.8	-5487.98	-50.1404
141.9	-5483.09	-50.2014
142	-5473.02	-50.1099
142.1	-5465.7	-50.0793
142.2	-5465.09	-50.0488
142.3	-5468.44	-50.1404
142.4	-5473.94	-50.0183
142.5	-5479.74	-50.0488
142.6	-5484.92	-50.0793
142.7	-5482.79	-50.1404
142.8	-5481.87	-50.1099
142.9	-5495	-50.1099
143	-5505.68	-50.1099
143.1	-5499.57	-50.1404
143.2	-5486.45	-50.1404
143.3	-5484.62	-50.1404
143.4	-5487.98	-50.1404
143.5	-5486.76	-50.1709
143.6	-5484.01	-50.1099
143.7	-5481.87	-50.1709
143.8	-5479.13	-50.2014
143.9	-5475.16	-50.2625
144	-5468.44	-50.2014
144.1	-5466.31	-50.1099
144.2	-5473.33	-50.1404
144.3	-5475.16	-50.2319
144.4	-5474.55	-50.2319
144.5	-5478.82	-50.0793
144.6	-5482.79	-50.0488
144.7	-5478.82	-50.1099
144.8	-5479.43	-50.1404
144.9	-5484.31	-50.1099
145	-5487.37	-50.2014
145.1	-5494.08	-50.2014
145.2	-5495.91	-50.2625
145.3	-5491.94	-50.2319
145.4	-5494.08	-50.1404
145.5	-5496.52	-50.1099
145.6	-5496.52	-50.0793
145.7	-5493.77	-50.1099
145.8	-5494.08	-50.1709
145.9	-5489.2	-50.2014
146	-5489.2	-50.1404
146.1	-5486.15	-50.1404
146.2	-5490.42	-50.2014
146.3	-5497.74	-50.1709
146.4	-5493.16	-50.1404
146.5	-5486.45	-50.1099
146.6	-5486.45	-50.0488
146.7	-5488.89	-50.0793
146.8	-5484.31	-50.1404
146.9	-5480.65	-50.2319
147	-5483.09	-50.1709
147.1	-5478.21	-50.2014
147.2	-5475.46	-50.2014
147.3	-5486.15	-50.2625
147.4	-5492.55	-50.2014
147.5	-5488.59	-50.1099
147.6	-5489.81	-50.1404
147.7	-5485.84	-50.1404
147.8	-5483.09	-50.0793
147.9	-5486.76	-50.0488
148	-5482.48	-50.0793
148.1	-5473.63	-50.1404
148.2	-5472.72	-50.2319
148.3	-5475.16	-50.2014
148.4	-5475.16	-50.2014
148.5	-5480.04	-50.2625
148.6	-5474.85	-50.2319
148.7	-5469.97	-50.1404
148.8	-5470.89	-50.1099
148.9	-5467.83	-50.1099
149	-5461.73	-50.1404
149.1	-5457.46	-50.1709
149.2	-5451.97	-50.2319
149.3	-5451.97	-50.1099
149.4	-5457.15	-50.1099
149.5	-5463.26	-50.1099
149.6	-5460.21	-50.1404
149.7	-5446.78	-50.2014
149.8	-5438.54	-50.2014
149.9	-5441.59	-50.1709
150	-5437.01	-50.2014
150.1	-5434.57	-55.2673
150.2	-5451.97	-55.2063
150.3	-5645.45	-55.2368
150.4	-5909.12	-55.2063
150.5	-5963.13	-55.2063
150.6	-5943.6	-55.1453
150.7	-5939.64	-55.1147
150.8	-5947.27	-55.1147
150.9	-5952.76	-55.1758
151	-5946.96	-55.2063
151.1	-5936.89	-55.1758
151.2	-5936.89	-55.1147
151.3	-5939.94	-55.1147
151.4	-5937.19	-55.1758
151.5	-5938.42	-55.2063
151.6	-5945.74	-55.2368
151.7	-5946.04	-55.2063
151.8	-5944.82	-55.1453
151.9	-5947.27	-55.1453
152	-5956.12	-55.1758
152.1	-5962.22	-55.1147
152.2	-5957.34	-55.1453
152.3	-5951.23	-55.1758
152.4	-5951.54	-55.1147
152.5	-5951.23	-55.1453
152.6	-5951.84	-55.1147
152.7	-5950.93	-55.2063
152.8	-5939.64	-55.1453
152.9	-5926.21	-55.1147
153	-5922.85	-55.1147
153.1	-5918.88	-55.0842
153.2	-5922.24	-55.0842
153.3	-5932.62	-55.0232
153.4	-5933.23	-55.1453
153.5	-5930.79	-55.1147
153.6	-5932.01	-55.0842
153.7	-5935.06	-55.1147
153.8	-5942.08	-55.0842
153.9	-5939.64	-55.1453
154	-5933.23	-55.2063
154.1	-5928.34	-55.2368
154.2	-5927.73	-55.1758
154.3	-5926.82	-55.0842
154.4	-5928.04	-55.0537
154.5	-5926.51	-55.2368
154.6	-5928.96	-55.2063
154.7	-5928.34	-55.0842
154.8	-5930.79	-55.1147
154.9	-5934.14	-55.1147
155	-5927.43	-55.2368
155.1	-5921.94	-55.1453
155.2	-5924.38	-55.1453
155.3	-5924.99	-55.0537
155.4	-5921.94	-55.0842
155.5	-5925.29	-55.2063
155.6	-5929.87	-55.2368
155.7	-5931.7	-55.2063
155.8	-5926.21	-55.1758
155.9	-5920.1	-55.1147
156	-5916.14	-55.0537
156.1	-5912.17	-55.1453
156.2	-5908.81	-55.2368
156.3	-5910.34	-55.1147
156.4	-5912.17	-55.0842
156.5	-5915.22	-55.1758
156.6	-5913.39	-55.2979
156.7	-5916.14	-55.1147
156.8	-5924.38	-55.0842
156.9	-5927.43	-55.2063
157	-5927.12	-55.2368
157.1	-5918.88	-55.1147
157.2	-5908.81	-55.0842
157.3	-5905.76	-55.1147
157.4	-5903.63	-55.0842
157.5	-5901.18	-55.1453
157.6	-5907.59	-55.1453
157.7	-5910.95	-55.2063
157.8	-5905.76	-55.1147
157.9	-5895.08	-55.1147
158	-5886.23	-55.1147
158.1	-5885.93	-55.0842
158.2	-5894.78	-55.0842
158.3	-5906.98	-55.0842
158.4	-5907.59	-55.1147
158.5	-5905.46	-55.0537
158.6	-5905.15	-55.0537
158.7	-5899.96	-55.1147
158.8	-5897.83	-55.1453
158.9	-5904.24	-55.2368
159	-5899.96	-55.2368
159.1	-5894.17	-55.2063
159.2	-5892.03	-55.1147
159.3	-5891.11	-55.0842
159.4	-5896.3	-55.1147
159.5	-5896.61	-55.1147
159.6	-5895.69	-55.0842
159.7	-5891.11	-55.2063
159.8	-5892.33	-55.2673
159.9	-5897.83	-55.2368
160	-5906.37	-55.1453
160.1	-5900.57	-60.1501
160.2	-5953.37	-60.1196
160.3	-6193.85	-60.0891
160.4	-6341.55	-60.1196
160.5	-6357.42	-60.1196
160.6	-6365.05	-60.0891
160.7	-6367.49	-60.1196
160.8	-6372.07	-60.0891
160.9	-6369.63	-60.1501
161	-6356.81	-60.1501
161.1	-6347.05	-60.2112
161.2	-6347.96	-60.2417
161.3	-6359.25	-60.2417
161.4	-6368.1	-60.2112
161.5	-6374.21	-60.2112
161.6	-6372.99	-60.1501
161.7	-6373.29	-60.0281
161.8	-6378.78	-60.1196
161.9	-6373.6	-60.3027
162	-6363.53	-60.1501
162.1	-6367.19	-60.0891
162.2	-6371.46	-60.0891
162.3	-6366.58	-60.1196
162.4	-6362.61	-60.1501
162.5	-6365.36	-60.2417
162.6	-6368.41	-60.2417
162.7	-6362.92	-60.1196
162.8	-6360.78	-60.0891
162.9	-6366.58	-60.1196
163	-6361.69	-60.0586
163.1	-6357.73	-60.0891
163.2	-6358.95	-60.1196
163.3	-6358.64	-60.1196
163.4	-6357.42	-60.0891
163.5	-6358.03	-60.1501
163.6	-6356.81	-60.1807
163.7	-6358.64	-60.2112
163.8	-6358.95	-60.2112
163.9	-6354.37	-60.0891
164	-6354.98	-60.0586
164.1	-6363.83	-60.0891
164.2	-6375.12	-60.0891
164.3	-6376.34	-60.0891
164.4	-6374.21	-60.2112
164.5	-6375.73	-60.2112
164.6	-6379.09	-60.0891
164.7	-6377.87	-60.0891
164.8	-6371.15	-60.0891
164.9	-6372.68	-60.1196
165	-6377.56	-60.2722
165.1	-6380	-60.1807
165.2	-6374.82	-60.2112
165.3	-6367.19	-60.2112
165.4	-6362.92	-60.2112
165.5	-6351.93	-60.1807
165.6	-6351.62	-60.1501
165.7	-6359.25	-60.0586
165.8	-6349.79	-60.0586
165.9	-6341.86	-60.1196
166	-6347.35	-60.0891
166.1	-6345.21	-60.0891
166.2	-6341.25	-60.1501
166.3	-6345.83	-60.1807
166.4	-6351.93	-60.2417
166.5	-6348.27	-60.2417
166.6	-6350.4	-60.2417
166.7	-6360.17	-60.1807
166.8	-6369.32	-60.0586
166.9	-6373.29	-60.0891
167	-6370.54	-60.2112
167.1	-6365.05	-60.2417
167.2	-6363.83	-60.0891
167.3	-6359.56	-60.1196
167.4	-6357.73	-60.1196
167.5	-6357.73	-60.1501
167.6	-6355.59	-60.2112
167.7	-6351.01	-60.1501
167.8	-6341.86	-60.1196
167.9	-6338.81	-60.0891
168	-6331.79	-60.2112
168.1	-6317.75	-60.2722
168.2	-6308.59	-60.1196
168.3	-6310.12	-60.0891
168.4	-6308.29	-60.0891
168.5	-6297.3	-60.0586
168.6	-6295.47	-60.0891
168.7	-6306.76	-60.1501
168.8	-6319.58	-60.0891
168.9	-6322.02	-60.1501
169	-6314.09	-60.1501
169.1	-6313.48	-60.2112
169.2	-6316.22	-60.2112
169.3	-6319.89	-60.1196
169.4	-6322.02	-60.0891
169.5	-6325.68	-60.1196
169.6	-6329.96	-60.0891
169.7	-6336.67	-60.1196
169.8	-6346.44	-60.1807
169.9	-6350.1	-60.2417
170	-6345.83	-60.1501
170.1	-6334.84	-65.094
170.2	-6338.5	-65.0635
170.3	-6507.87	-65.033
170.4	-6752.01	-65.094
170.5	-6810.91	-65.155
170.6	-6798.4	-65.1855
170.7	-6793.82	-65.2466
170.8	-6801.45	-65.1855
170.9	-6811.22	-65.094
171	-6813.66	-65.0635
171.1	-6810.61	-65.0635
171.2	-6799.32	-65.0024
171.3	-6803.59	-65.0635
171.4	-6817.93	-65.155
171.5	-6813.96	-65.1245
171.6	-6806.95	-65.1855
171.7	-6813.96	-65.1855
171.8	-6824.04	-65.1245
171.9	-6818.54	-65.1245
172	-6808.17	-65.1855
172.1	-6806.64	-65.1245
172.2	-6800.84	-65.155
172.3	-6802.06	-65.1855
172.4	-6803.28	-65.1245
172.5	-6799.01	-65.094
172.6	-6792.6	-65.0635
172.7	-6779.48	-65.033
172.8	-6773.99	-65.0635
172.9	-6770.63	-65.0635
173	-6758.12	-65.094
173.1	-6756.29	-65.033
173.2	-6758.73	-65.0635
173.3	-6751.4	-65.094
173.4	-6753.23	-65.033
173.5	-6766.66	-65.033
173.6	-6771.24	-65.0635
173.7	-6769.71	-65.094
173.8	-6770.32	-65.0635
173.9	-6779.48	-65.155
174	-6780.7	-65.155
174.1	-6777.95	-65.1245
174.2	-6779.79	-65.155
174.3	-6775.21	-65.2161
174.4	-6766.97	-65.2161
174.5	-6755.98	-65.1855
174.6	-6757.51	-65.2161
174.7	-6771.85	-65.2466
174.8	-6781.01	-65.155
174.9	-6770.63	-65.155
175	-6759.64	-65.1855
175.1	-6763.61	-65.094
175.2	-6774.6	-65.033
175.3	-6779.17	-65.094
175.4	-6776.12	-65.094
175.5	-6773.38	-65.0635
175.6	-6770.63	-65.0635
175.7	-6771.24	-65.1245
175.8	-6776.43	-65.155
175.9	-6777.04	-65.1245
176	-6773.38	-65.0635
176.1	-6767.58	-65.0635
176.2	-6770.94	-65.1855
176.3	-6777.04	-65.2161
176.4	-6773.07	-65.1855
176.5	-6768.19	-65.1245
176.6	-6772.16	-65.0635
176.7	-6777.34	-65.033
176.8	-6781.01	-65.033
176.9	-6781.01	-65.0635
177	-6778.87	-65.033
177.1	-6787.11	-65.1245
177.2	-6784.36	-65.0024
177.3	-6780.09	-65.0635
177.4	-6786.5	-65.2161
177.5	-6793.82	-65.155
177.6	-6789.25	-65.1855
177.7	-6782.53	-65.1855
177.8	-6779.48	-65.2161
177.9	-6777.34	-65.1245
178	-6780.7	-65.155
178.1	-6782.53	-65.2161
178.2	-6780.09	-65.1855
178.3	-6776.12	-65.155
178.4	-6770.94	-65.2161
178.5	-6767.58	-65.1855
178.6	-6761.47	-65.1245
178.7	-6747.13	-65.155
178.8	-6742.55	-65.0635
178.9	-6737.06	-65.033
179	-6735.84	-65.155
179.1	-6737.37	-65.2161
179.2	-6735.23	-65.155
179.3	-6733.7	-65.1245
179.4	-6737.37	-65.155
179.5	-6740.72	-65.033
179.6	-6734.31	-65.033
179.7	-6730.65	-65.0635
179.8	-6725.77	-65.155
179.9	-6722.41	-65.1245
180	-6729.43	-70.2209
180.1	-6837.16	-70.2209
180.2	-7091.98	-70.1294
180.3	-7184.75	-70.0989
180.4	-7170.1	-70.0684
180.5	-7159.73	-70.1294
180.6	-7160.34	-70.0378
180.7	-7162.78	-70.0684
180.8	-7157.59	-70.1599
180.9	-7153.32	-70.2209
181	-7150.27	-70.1294
181.1	-7135.62	-70.0684
181.2	-7124.63	-70.0989
181.3	-7125.24	-70.0684
181.4	-7138.37	-70.0684
181.5	-7150.27	-70.0684
181.6	-7154.85	-70.1294
181.7	-7153.93	-70.1599
181.8	-7155.15	-70.1904
181.9	-7159.42	-70.1904
182	-7155.46	-70.0684
182.1	-7153.02	-70.0684
182.2	-7152.71	-70.0684
182.3	-7155.76	-70.0989
182.4	-7147.52	-70.1904
182.5	-7130.43	-70.1599
182.6	-7125.24	-70.1294
182.7	-7120.36	-70.0378
182.8	-7115.17	-70.0684
182.9	-7111.82	-70.2515
183	-7121.28	-70.1599
183.1	-7139.89	-70.0989
183.2	-7151.18	-70.0989
183.3	-7152.1	-70.0989
183.4	-7145.08	-70.1294
183.5	-7134.7	-70.0684
183.6	-7143.25	-70.1599
183.7	-7151.79	-70.0989
183.8	-7149.05	-70.0684
183.9	-7149.35	-70.0684
184	-7142.03	-70.1599
184.1	-7140.2	-70.1599
184.2	-7144.47	-70.0684
184.3	-7145.08	-70.0378
184.4	-7145.39	-70.2209
184.5	-7143.25	-70.1294
184.6	-7132.87	-70.0073
184.7	-7126.77	-70.2209
184.8	-7128.91	-70.1904
184.9	-7133.79	-70.0989
185	-7133.18	-70.0989
185.1	-7128.3	-70.0378
185.2	-7122.8	-70.1294
185.3	-7120.97	-70.1599
185.4	-7119.14	-70.0684
185.5	-7112.73	-70.0684
185.6	-7109.38	-70.2209
185.7	-7116.09	-70.0684
185.8	-7115.48	-70.0378
185.9	-7114.87	-70.1904
186	-7113.34	-70.1599
186.1	-7115.17	-70.0378
186.2	-7109.68	-70.0989
186.3	-7112.73	-70.0989
186.4	-7116.09	-70.0684
186.5	-7124.02	-70.2209
186.6	-7120.06	-70.1904
186.7	-7113.65	-70.1599
186.8	-7114.26	-70.2209
186.9	-7122.5	-70.2209
187	-7124.63	-70.1599
187.1	-7115.78	-70.1599
187.2	-7112.43	-70.1904
187.3	-7111.82	-70.1599
187.4	-7112.12	-70.2515
187.5	-7120.36	-70.1599
187.6	-7127.69	-70.1599
187.7	-7130.43	-70.1904
187.8	-7125.24	-70.0684
187.9	-7122.8	-70.0684
188	-7116.09	-70.0684
188.1	-7116.7	-70.0989
188.2	-7114.26	-70.0989
188.3	-7104.49	-70.1904
188.4	-7099.3	-70.1904
188.5	-7103.88	-70.1904
188.6	-7110.9	-70.1599
188.7	-7108.46	-70.0989
188.8	-7102.66	-70.0989
188.9	-7097.47	-70.0378
189	-7095.03	-70.0073
189.1	-7100.52	-70.0684
189.2	-7096.86	-70.0989
189.3	-7087.71	-70.0378
189.4	-7080.99	-70.0684
189.5	-7064.51	-70.0684
189.6	-7058.72	-70.1599
189.7	-7063.9	-70.1904
189.8	-7066.65	-70.0989
189.9	-7068.18	-70.0989
190	-7069.4	-70.0378
190.1	-7068.79	-75.0122
190.2	-7076.72	-75.0427
190.3	-7234.8	-75.0427
190.4	-7452.09	-75.1953
190.5	-7503.36	-75.1953
190.6	-7502.14	-75.1038
190.7	-7511.6	-75.1343
190.8	-7514.95	-75.0427
190.9	-7515.87	-75.0427
191	-7519.23	-75.0427
191.1	-7519.23	-74.9817
191.2	-7514.34	-75.1038
191.3	-7509.77	-75.1038
191.4	-7508.24	-75.1648
191.5	-7499.08	-75.1343
191.6	-7507.63	-75.0122
191.7	-7518.92	-75.0122
191.8	-7522.89	-75.1343
191.9	-7536.01	-75.1343
192	-7539.98	-75.1038
192.1	-7533.26	-75.0427
192.2	-7521.97	-74.9817
192.3	-7500	-75.0732
192.4	-7477.42	-75.0427
192.5	-7471.62	-75.1648
192.6	-7474.98	-75.1343
192.7	-7483.22	-75.0122
192.8	-7481.38	-75.0427
192.9	-7476.5	-75.0122
193	-7472.53	-75.1648
193.1	-7480.77	-75.1953
193.2	-7496.34	-75.1038
193.3	-7501.22	-75.1038
193.4	-7502.75	-75.0732
193.5	-7511.29	-75.1343
193.6	-7508.24	-75.1343
193.7	-7499.08	-75.0427
193.8	-7489.62	-75.0427
193.9	-7479.86	-75.1038
194	-7487.49	-75.0732
194.1	-7499.08	-75.0732
194.2	-7495.12	-75.0427
194.3	-7478.64	-75.0427
194.4	-7481.08	-75.0732
194.5	-7493.9	-75.1038
194.6	-7492.07	-75.1648
194.7	-7484.44	-75.1343
194.8	-7482.91	-75.0122
194.9	-7486.57	-75.0732
195	-7488.71	-75.0122
195.1	-7489.93	-75.0122
195.2	-7475.59	-75.1648
195.3	-7458.8	-75.0732
195.4	-7460.63	-75.1953
195.5	-7461.85	-75.1343
195.6	-7463.99	-75.1038
195.7	-7463.07	-75.0732
195.8	-7448.73	-75.0427
195.9	-7442.63	-75.0427
196	-7443.85	-75.0122
196.1	-7448.12	-75.0427
196.2	-7452.39	-75.1343
196.3	-7444.46	-75.0427
196.4	-7443.54	-75.1953
196.5	-7457.89	-75.1343
196.6	-7466.13	-75.1648
196.7	-7478.33	-75.2258
196.8	-7472.23	-75.1343
196.9	-7463.68	-75.1648
197	-7462.16	-75.0732
197.1	-7448.73	-75.0122
197.2	-7445.37	-75.0732
197.3	-7456.67	-75.1038
197.4	-7458.19	-75.2258
197.5	-7451.78	-75.1038
197.6	-7449.04	-75.1343
197.7	-7442.02	-75.1343
197.8	-7434.39	-75.0732
197.9	-7434.08	-75.0427
198	-7435.3	-75.0427
198.1	-7429.81	-75.0427
198.2	-7429.81	-75.0427
198.3	-7439.58	-75.0427
198.4	-7438.66	-75.0427
198.5	-7429.2	-75.0427
198.6	-7416.38	-75.0427
198.7	-7408.14	-75.0732
198.8	-7406.01	-75.0122
198.9	-7407.23	-75.0732
199	-7402.95	-75.0732
199.1	-7396.55	-75.0427
199.2	-7384.03	-75.0732
199.3	-7377.01	-75.0122
199.4	-7384.64	-75.0122
199.5	-7387.39	-75.1953
199.6	-7381.29	-75.0732
199.7	-7382.2	-75.0122
199.8	-7384.95	-75.0732
199.9	-7388.31	-75.0427
200	-7393.19	-75.0732
200.1	-7392.88	-75.0122
200.2	-7382.51	-74.9817
200.3	-7373.66	-75.0427
200.4	-7372.44	-75.0732
200.5	-7377.93	-80.1697
200.6	-7443.24	-80.1392
200.7	-7690.12	-80.0171
200.8	-7837.52	-80.0476
200.9	-7825.62	-80.0171
201	-7810.67	-80.0476
201.1	-7808.84	-80.1697
201.2	-7808.23	-80.2002
201.3	-7808.53	-80.1392
201.4	-7806.09	-80.2002
201.5	-7796.33	-80.1086
201.6	-7807.01	-80.1392
201.7	-7820.13	-80.1086
201.8	-7809.45	-79.9866
201.9	-7806.4	-80.0781
202	-7810.36	-80.0171
202.1	-7811.58	-80.1086
202.2	-7815.86	-80.2002
202.3	-7818.3	-80.1392
202.4	-7809.45	-80.0476
202.5	-7804.57	-80.0171
202.6	-7817.08	-80.0476
202.7	-7823.49	-80.2002
202.8	-7817.99	-80.1086
202.9	-7814.03	-80.0476
203	-7810.06	-80.0781
203.1	-7810.06	-79.9866
203.2	-7815.86	-80.1392
203.3	-7821.66	-80.1697
203.4	-7817.08	-80.1392
203.5	-7816.16	-80.0781
203.6	-7811.28	-80.0476
203.7	-7800.6	-79.9866
203.8	-7798.16	-80.1086
203.9	-7798.16	-80.1392
204	-7802.43	-80.1697
204.1	-7805.18	-80.2307
204.2	-7789.61	-80.0476
204.3	-7770.39	-80.0171
204.4	-7756.04	-80.0781
204.5	-7745.36	-80.0781
204.6	-7743.23	-80.2002
204.7	-7747.19	-80.1086
204.8	-7750.24	-80.0476
204.9	-7760.31	-80.0476
205	-7765.81	-80.0476
205.1	-7762.76	-80.0781
205.2	-7765.81	-80.2307
205.3	-7773.13	-80.1392
205.4	-7779.85	-80.1086
205.5	-7772.52	-80.1086
205.6	-7748.11	-80.0476
205.7	-7729.8	-80.0476
205.8	-7731.32	-80.0781
205.9	-7723.08	-79.9866
206	-7723.69	-80.1086
206.1	-7728.88	-80.1086
206.2	-7709.35	-80.1392
206.3	-7691.96	-80.2307
206.4	-7703.25	-80.0476
206.5	-7709.05	-80.0476
206.6	-7705.69	-80.1086
206.7	-7720.34	-80.1697
206.8	-7734.07	-80.0781
206.9	-7730.71	-80.0476
207	-7721.86	-80.0476
207.1	-7727.05	-80.1392
207.2	-7732.54	-80.1697
207.3	-7731.93	-80.1697
207.4	-7733.76	-80.1392
207.5	-7738.95	-80.0781
207.6	-7741.39	-80.0476
207.7	-7737.43	-80.0781
207.8	-7721.25	-80.1392
207.9	-7702.94	-80.1392
208	-7695.31	-80.0476
208.1	-7688.29	-80.0171
208.2	-7692.87	-80.1697
208.3	-7699.28	-80.1392
208.4	-7707.52	-80.1086
208.5	-7726.14	-80.1697
208.6	-7724.3	-80.0476
208.7	-7712.1	-80.0171
208.8	-7723.08	-80.0781
208.9	-7723.69	-80.1086
209	-7710.57	-80.2002
209.1	-7698.36	-80.2002
209.2	-7691.96	-80.1392
209.3	-7697.75	-80.1392
209.4	-7707.21	-80.0476
209.5	-7706.6	-79.9866
209.6	-7695.31	-80.0476
209.7	-7689.82	-80.0171
209.8	-7689.21	-80.0171
